File: Data Files/Full/dt csv/Corrected_Depth_XRD_Data.csv
,file_name,omega,amorphous_percentage,crystalline_percentage,effective_depth,amorphous_percentage_intensity,crystalline_percentage_intensity,effective_depth_intensity,corrected_amorphous_percentage,corrected_crystalline_percentage,weight,corrected_amorphous_percentage_intensity,corrected_crystalline_percentage_intensity,weight_intensity,index_of_refraction,index_of_refraction_intensity,attenuation_coefficient,attenuation_coefficient_intensity,corrected_depth_intensity
0,"MSS dt (0-129, 0.25w, 0D).csv",0.25,0.879648,0.120352,1.02636e-05,0.447312,0.552688,2.72474e-06,0.879648,0.120352,1.0,0.447312,0.552688,1.0,(0.999993-2.6059508626903413e-08j),(0.999993-9.816152348530498e-08j),2125.62,8006.84,1.25479
1,"MSS dt (0-129, 0.5w, 0D).csv",0.5,0.90272,0.0972797,2.4083e-05,0.211495,0.788505,3.89065e-06,0.919856,0.0801439,0.426175,-0.339609,1.33961,0.700329,(0.999993-1.935384271825587e-08j),(0.999992-2.2939869903400408e-07j),1578.65,18711.6,2.50955
2,"MSS dt (0-129, 1w, 0D).csv",1.0,0.766266,0.233734,2.37901e-05,0.140221,0.859779,7.16184e-06,11.9857,-10.9857,1.01231,0.0554512,0.944549,0.543247,(1+1.8261299196575089e-06j),(0.999992-1.6351331328996258e-07j),-148954,13337.5,3.70644
3,"MSS dt (0-129, 2w).csv",2.0,0.674976,0.325024,3.55403e-05,0.121336,0.878664,1.40258e-05,0.490145,0.509855,0.669384,0.101632,0.898368,0.51062,(0.999993-9.10181308742887e-08j),(0.999992-1.5581166879472708e-07j),7424.17,12709.3,6.64428
4,"MSS dt (0-129, 3w, 0D).csv",3.0,0.00114322,0.998857,1.85902e-05,5.45157e-05,0.999945,1.85707e-05,1.41401,-0.414007,1.91178,-0.374229,1.37423,0.755266,(0.999993+6.305723045526703e-08j),(0.999992-2.3517235789688127e-07j),-5143.45,19182.5,9.77774
5,"MSS dt (0-129, 4w).csv",4.0,0.064703,0.935297,2.63997e-05,0.00645447,0.993546,2.49059e-05,0.216004,0.783996,0.704182,0.0252146,0.974785,0.745631,(0.999993-1.367373713552631e-07j),(0.999992-1.6855595394048615e-07j),11153.4,13748.8,12.9339
6,"MSS dt (1-129, 5w, 0D).csv",5.0,0.40025,0.59975,5.03963e-05,0.0259165,0.974084,3.17178e-05,0.7694,0.2306,0.523842,0.0970743,0.902926,0.785235,(0.999993-4.4445886245096894e-08j),(0.999992-1.5657169565399717e-07j),3625.36,12771.2,15.3909
7,"MSS dt (2-129, 6w, 0D).csv",6.0,0.428121,0.571879,6.32135e-05,0.0300376,0.969962,3.8196e-05,0.537709,0.462291,0.79724,0.0502152,0.949785,0.830397,(0.999993-8.308561351206642e-08j),(0.999992-1.6438653201442182e-07j),6777.13,13408.7,17.4762
8,"MSS dt (3-129, 7w, 0D).csv",7.0,0.501642,0.498358,8.38423e-05,0.0421439,0.957856,4.50751e-05,0.726932,0.273068,0.753957,0.109364,0.890636,0.847386,(0.999993-5.152836953340084e-08j),(0.999992-1.5452212924955267e-07j),4203.07,12604.1,19.9479
9,"MSS dt (4-129, 8w).csv",8.0,0.438604,0.561396,8.56419e-05,0.037307,0.962693,5.12258e-05,-2.4983,3.4983,0.978987,0.00186041,0.99814,0.879929,(0.999991-5.894099254871615e-07j),(0.999992-1.7245081100048597e-07j),48077,14066.5,22.8458
10,"MSS dt (5-129, 9w).csv",9.0,0.0654984,0.934502,5.9252e-05,0.00427789,0.995722,5.57357e-05,1.27632,-0.27632,1.44538,-0.37088,1.37088,0.919083,(0.999993+4.009471168428154e-08j),(0.999992-2.3461395665095545e-07j),-3270.45,19137,25.8003
11,"MSS dt (6-129, 10w).csv",10.0,0.374835,0.625165,9.65488e-05,0.0463045,0.953696,6.44962e-05,0.866266,0.133734,0.6137,0.313685,0.686315,0.86417,(0.999993-2.8291270033732794e-08j),(0.999993-1.2044693546020896e-07j),2307.66,9824.62,28.9038
12,"MSS dt (7-129, 11w).csv",11.0,0.322681,0.677319,9.83324e-05,0.039207,0.960793,7.03654e-05,-2.50045,3.50045,0.981861,-0.0387869,1.03879,0.91659,(0.999991-5.897683360405228e-07j),(0.999992-1.7922969044317241e-07j),48106.2,14619.4,31.9845
13,"MSS dt (8-129, 12w).csv",12.0,0.487988,0.512012,0.000139472,0.0500168,0.949983,7.75131e-05,0.883105,0.116895,0.705032,0.156433,0.843567,0.907787,(0.999993-2.548301951456357e-08j),(0.999993-1.4667222517313901e-07j),2078.6,11963.8,34.9214
14,"MSS dt (9-129, 13w).csv",13.0,0.431724,0.568276,0.00013685,0.0440313,0.955969,8.33596e-05,3.4243,-2.4243,1.01916,-0.0353241,1.03532,0.929864,(0.999995+3.983202204402184e-07j),(0.999992-1.7865218652228074e-07j),-32490.2,14572.3,37.8475
15,"MSS dt (10-129, 14w).csv",14.0,0.531283,0.468717,0.000176211,0.0632001,0.9368,9.14151e-05,0.877429,0.122571,0.776627,0.261562,0.738438,0.91188,(0.999993-2.6429534499213276e-08j),(0.999993-1.291396427619639e-07j),2155.81,10533.7,40.9256
16,"MSS dt (11-129, 15w).csv",15.0,0.346106,0.653894,0.000137911,0.0361231,0.963877,9.51514e-05,1.19806,-0.198062,1.27772,-0.626377,1.62638,0.960734,(0.999993+2.7043334251897765e-08j),(0.999992-2.77223980355867e-07j),-2205.87,22612.6,44.0125
17,"MSS dt (12-129, 16w).csv",16.0,0.108855,0.891145,0.000109285,0.0191853,0.980815,9.96462e-05,1.25185,-0.251852,1.26194,-0.339368,1.33937,0.954892,(0.999993+3.60141305774984e-08j),(0.999992-2.293585427928524e-07j),-2937.6,18708.3,46.876
18,"MSS dt (13-129, 17w).csv",17.0,0.0637053,0.936295,0.000110536,0.0111162,0.988884,0.000104864,-3.87926,4.87926,0.988679,-0.142994,1.14299,0.950246,(0.99999-8.197166367189354e-07j),(0.999992-1.966086718189415e-07j),66862.7,16037,49.6153
19,"MSS dt (14-129, 18w).csv",18.0,0.134714,0.865286,0.000126035,0.0227481,0.977252,0.000112106,0.641151,0.358849,0.87703,0.191165,0.808835,0.935396,(0.999993-6.583430093733792e-08j),(0.999993-1.4087994845907912e-07j),5369.97,11491.3,52.0448
20,"MSS dt (15-129, 19w).csv",19.0,0.166565,0.833435,0.00013765,0.0284576,0.971542,0.00011878,0.512163,0.487837,0.915616,0.124364,0.875636,0.943813,(0.999993-8.734600694955982e-08j),(0.999993-1.520205743816057e-07j),7124.64,12400,54.0362
21,"MSS dt (16-129, 20w).csv",20.0,0.177722,0.822278,0.000146486,0.0337396,0.96626,0.00012544,0.351542,0.648458,0.93968,0.127944,0.872056,0.946907,(0.999993-1.1413331972559795e-07j),(0.999993-1.5142352685917656e-07j),9309.63,12351.3,56.2812
22,"MSS dt (17-129, 21w).csv",21.0,1.79213,-0.792131,-0.000174181,0.0720292,0.927971,0.000136657,1.05464,-0.0546433,-0.840996,0.500224,0.499776,0.917919,(0.999993+3.1250333423461265e-09j),(0.999993-8.933726077301159e-08j),-254.903,7287.06,60.1126
23,"MSS dt (18-129, 22w).csv",22.0,0.122563,0.877437,0.000150753,0.0440349,0.955965,0.000138818,1.01754,-0.0175364,-1.15541,-1.72662,2.72662,0.984436,(0.999993-3.0634012342317488e-09j),(0.999991-4.6071556142671477e-07j),249.876,37579.7,63.9184