File: Data Files/Full/dt csv/Processed_XRD_Data.csv
,omega,Position,Intensity,amorphous_range,crystalline_range,amorphous_fit_amplitude,amorphous_fit_amplitude_uncertainty,amorphous_fit_mean,amorphous_fit_mean_uncertainty,amorphous_fit_std_dev,amorphous_fit_std_dev_uncertainty,amorphous_fit_background,amorphous_fit_background_uncertainty,chi_squared_amorphous,amorphous_nu,amorphous_fit_amorphous_x_range_used,amorphous_fit_amorphous_y_range_used,crystalline_fit_amplitude,crystalline_fit_amplitude_uncertainty,crystalline_fit_mean,crystalline_fit_mean_uncertainty,crystalline_fit_std_dev,crystalline_fit_std_dev_uncertainty,crystalline_fit_background,crystalline_fit_background_uncertainty,chi_squared_crystalline,crystalline_nu,crystalline_fit_crystalline_x_range_used,crystalline_fit_crystalline_y_range_used,max_amorphous,max_crystalline,amorphous_area,crystalline_area,amorphous_percentage,crystalline_percentage,amorphous_percentage_intensity,crystalline_percentage_intensity,effective_depth,effective_depth_intensity
"MSS dt (0-129, 0.25w, 0D).csv",0.25,"[4.0000e-02 1.2000e-01 2.0000e-01 2.8000e-01 3.6000e-01 4.4000e-01
 4.9000e+01 4.9080e+01 4.9160e+01 4.9240e+01 4.9320e+01 4.9400e+01
 9.7960e+01 9.8040e+01 9.8120e+01 9.8200e+01 9.8280e+01 9.8360e+01
 1.070000e+02 9.700000e+01 1.170000e+02 1.090000e+02 1.200000e+02
 2.800000e+01 2.700000e+01 3.900000e+01 4.700000e+01 3.000000e+01
 3.600000e+01 3.600000e+01 5.000000e+01 3.900000e+01 3.700000e+01
 266.652 252.652 254.652 252.652 245.652
 2.5950e+01 2.6010e+01 2.6070e+01 2.6130e+01 2.6190e+01 2.6250e+01
 6.2670e+01 6.2730e+01 6.2790e+01 6.2850e+01 6.2910e+01 6.2970e+01
 9.9390e+01 9.9450e+01 9.9510e+01 9.9570e+01 9.9630e+01 9.9690e+01
 4.250000e+02 4.310000e+02 4.460000e+02 4.630000e+02 4.480000e+02
 9.100000e+01 9.200000e+01 9.800000e+01 1.200000e+02 1.040000e+02
 4.300000e+01 3.400000e+01 3.700000e+01 4.700000e+01 4.100000e+01
 3.900000e+01 4.800000e+01 3.800000e+01 6.000000e+01 5.100000e+01
 1.480000e+02 1.460000e+02 1.500000e+02 1.250000e+02 1.470000e+02
 8.6800e+00 8.7600e+00 8.8400e+00 8.9200e+00 9.0000e+00 9.0800e+00
 5.7640e+01 5.7720e+01 5.7800e+01 5.7880e+01 5.7960e+01 5.8040e+01
 1.0660e+02 1.0668e+02 1.0676e+02 1.0684e+02 1.0692e+02 1.0700e+02
 1.045000e+03 1.039000e+03 9.900000e+02 1.043000e+03 1.009000e+03
 1.490000e+02 1.470000e+02 1.390000e+02 2.100000e+02 2.800000e+02
 1.250000e+02 1.280000e+02 1.380000e+02 1.320000e+02 1.080000e+02
  153.02  156.02  169.02  105.02  178.02
 3.9400e+01 3.9480e+01 3.9560e+01 3.9640e+01 3.9720e+01 3.9800e+01
 8.8360e+01 8.8440e+01 8.8520e+01 8.8600e+01 8.8680e+01 8.8760e+01
 1.161000e+03 1.177000e+03 1.080000e+03 1.171000e+03 1.135000e+03
 4.570000e+02 3.860000e+02 4.100000e+02 4.180000e+02 4.640000e+02
 2.740000e+02 2.630000e+02 2.820000e+02 2.620000e+02 2.980000e+02
  156.562  126.562  129.562  126.562  184.562
 2.52500e+00 2.53500e+00 2.54500e+00 2.55500e+00 2.56500e+00 2.57500e+00
 8.64500e+00 8.65500e+00 8.66500e+00 8.67500e+00 8.68500e+00 8.69500e+00
 1.47650e+01 1.47750e+01 1.47850e+01 1.47950e+01 1.48050e+01 1.48150e+01
 2.08850e+01 2.08950e+01 2.09050e+01 2.09150e+01 2.09250e+01 2.09350e+01
 2.70050e+01 2.70150e+01 2.70250e+01 2.70350e+01 2.70450e+01 2.70550e+01
 3.31250e+01 3.31350e+01 3.31450e+01 3.31550e+01 3.31650e+01 3.31750e+01
 3.92450e+01 3.92550e+01 3.92650e+01 3.92750e+01 3.92850e+01 3.92950e+01
 4.53650e+01 4.53750e+01 4.53850e+01 4.53950e+01 4.54050e+01 4.54150e+01
 5.14850e+01 5.14950e+01 5.15050e+01 5.15150e+01 5.15250e+01 5.15350e+01
 5.76050e+01 5.76150e+01 5.76250e+01 5.76350e+01 5.76450e+01 5.76550e+01
 6.37250e+01 6.37350e+01 6.37450e+01 6.37550e+01 6.37650e+01 6.37750e+01
 6.98450e+01 6.98550e+01 6.98650e+01 6.98750e+01 6.98850e+01 6.98950e+01
 7.59650e+01 7.59750e+01 7.59850e+01 7.59950e+01 7.60050e+01 7.60150e+01
 8.20850e+01 8.20950e+01 8.21050e+01 8.21150e+01 8.21250e+01 8.21350e+01
 8.82050e+01 8.82150e+01 8.82250e+01 8.82350e+01 8.82450e+01 8.82550e+01
 9.43250e+01 9.43350e+01 9.43450e+01 9.43550e+01 9.43650e+01 9.43750e+01
 1.00445e+02 1.00455e+02 1.00465e+02 1.00475e+02 1.00485e+02 1.00495e+02
 1.06565e+02 1.06575e+02 1.06585e+02 1.06595e+02 1.06605e+02 1.06615e+02
 1.12685e+02 1.12695e+02 1.12705e+02 1.12715e+02 1.12725e+02 1.12735e+02
 1.18805e+02 1.18815e+02 1.18825e+02 1.18835e+02 1.18845e+02 1.18855e+02
 1.24925e+02 1.24935e+02 1.24945e+02 1.24955e+02 1.24965e+02 1.24975e+02
 289268 289557 289643 290878
 2402.05 2304.79 2131.39 2091.72
 1193.99 1167.11 1139.6 1176.07
 933.563 1098.01 956.598 954.679
 1168.39 1208.71 1169.03 1229.18
 1409.62 1449.93 1372.51 1403.22
 1129.36 1109.53 1010.35 1192.71
 731.366 704.491 733.925 717.929
 580.997 634.106 603.393 606.592
 566.281 554.763 546.445 545.805
 549.644 534.927 540.046 525.969
 517.011 533.648 514.452 516.371
 524.689 517.651 493.336 559.882
 1243.26 1202.95 1202.95 1238.78
 538.766 525.329 526.609 543.885
 399.276 397.996 418.472 392.237
 368.562 372.401 343.608 371.762
 392.237 401.195 394.157 392.237
 350.006 318.013 344.247 349.366
 342.968 341.688 357.045 351.926
 390.318 405.675 420.391 392.237
 437.028 400.555 422.311 429.989
 374.961 343.608 363.443 355.765
 301.376 305.216 295.618 309.055
 289.859 293.058 315.454 284.74
 307.775 282.82 280.261 289.859
 301.376 300.737 316.093 318.013
 335.289 312.254 317.373 340.408
 354.485 350.646 360.244 355.765
 374.961 348.726 362.803 377.52
 392.237 415.272 412.073 406.314
 488.217 511.252 500.375 478.619
 19.605 19.615 19.625 19.635 19.645 19.655 19.665 19.675 19.685 19.695
   70.9955   21.7259   77.3941   -3.86868  -55.0579
  287.91  349.337  343.578  346.138  323.742
  426.121  357.015  396.047  319.903  434.439
 53.605 53.615 53.625 53.635 53.645 53.655 53.665 53.675 53.685 53.695
 -414.662 -392.267 -380.109 -418.501
  4381.13  4587.8  4996.68  5599.43
 -467.131 -461.372 -453.694 -439.617
 2.8840e+01 2.8920e+01 2.9000e+01 2.9080e+01 2.9160e+01 2.9240e+01
 7.7800e+01 7.7880e+01 7.7960e+01 7.8040e+01 7.8120e+01 7.8200e+01
 1.2676e+02 1.2684e+02 1.2692e+02 1.2700e+02 1.2708e+02 1.2716e+02
 8.02000e+02 7.50000e+02 8.21000e+02 7.27000e+02 7.90000e+02 7.21000e+02
 5.24000e+02 5.15000e+02 5.20000e+02 5.42000e+02 5.54000e+02 5.99000e+02
  595.387  636.387  651.387  611.387  750.387
  35.44  35.52  35.6   35.68  35.76  35.84  35.92  36.    36.08  36.16
 117.04 117.12 117.2  117.28 117.36 117.44 117.52 117.6  117.68 117.76
 1.57200e+03 1.58800e+03 1.56300e+03 1.63500e+03 1.50400e+03 1.55300e+03
 1.00400e+03 9.18000e+02 9.94000e+02 9.41000e+02 9.60000e+02 9.04000e+02
 1032.03 1014.03  958.03 1083.03 1195.03
  26.63  26.69  26.75  26.81  26.87  26.93  26.99  27.05  27.11  27.17
  87.83  87.89  87.95  88.01  88.07  88.13  88.19  88.25  88.31  88.37
   3918.   3931.   3834.   3881.   3973.   3943.   3903.   3965.   3861.
   1199.   1176.   1181.   1206.   1216.   1197.   1134.   1205.   1192.
 15.17 15.23 15.29 15.35 15.41 15.47 15.53 15.59 15.65 15.71 15.77 15.83
 -514.809 -523.809 -418.809 -502.809
  72.64  72.72  72.8   72.88  72.96  73.04  73.12  73.2   73.28  73.36
   2357.   2319.   2431.   2328.   2281.   2309.   2245.   2332.   2285.
    840.    863.    891.    883.    929.    878.    842.    858.    825.
  -306.337  -336.337  -259.337  -268.337
 87.56 87.64 87.72 87.8  87.88 87.96 88.04 88.12 88.2  88.28 88.36 88.44
    928.    959.    934.    948.    944.    986.    925.    991.    979.
   9.04   9.12   9.2    9.28   9.36   9.44   9.52   9.6    9.68   9.76
  90.64  90.72  90.8   90.88  90.96  91.04  91.12  91.2   91.28  91.36
   2690.   2745.   2861.   2702.   2818.   2760.   2749.   2658.   2720.
   1931.   1790.   1813.   1918.   1866.   1862.   1962.   1801.   1813.
  2658.48  2442.48  2285.48  1883.48
  72.44  72.52  72.6   72.68  72.76  72.84  72.92  73.    73.08  73.16
 6.899000e+03 5.517000e+03 5.435000e+03 5.452000e+03 5.330000e+03
 2.671000e+03 2.730000e+03 2.711000e+03 2.741000e+03 2.825000e+03
 1.600000e+03 1.660000e+03 1.546000e+03 1.557000e+03 1.561000e+03
 40893 42593 40125 33589
  83.84  83.92  84.    84.08  84.16  84.24  84.32  84.4   84.48  84.56
  2595.  2676.  2715.  2632.  2569.  2573.  2513.  2532.  2570.  2690.
  2363.  2420.  2363.  2438.  2432.  2346.  2394.  2394.  2416.  2329.
  54.44  54.52  54.6   54.68  54.76  54.84  54.92  55.    55.08  55.16
  3755.  3942.  4019.  3872.  3902.  3903.  3793.  4047.  3971.  3978.
  2154.  2059.  2051.  1944.  2026.  1954.  1886.  2047.  1908.  1896.
  22.64  22.72  22.8   22.88  22.96  23.04  23.12  23.2   23.28  23.36
 104.24 104.32 104.4  104.48 104.56 104.64 104.72 104.8  104.88 104.96
  2130.  1975.  2128.  1967.  1991.  1914.  1904.  1935.  1919.  1835.
 1088.73 1132.73 1011.73  990.731  948.731
  74.04  74.12  74.2   74.28  74.36  74.44  74.52  74.6   74.68  74.76
  2459.  2437.  2460.  2527.  2512.  2454.  2477.  2411.  2478.  2425.
  2145.  2175.  2181.  2312.  2270.  2304.  2532.  2477.  2604.  2740.
  51.04  51.12  51.2   51.28  51.36  51.44  51.52  51.6   51.68  51.76
  3237.  3321.  3296.  3211.  3364.  3183.  3234.  3160.  3262.  3160.
  2125.  2124.  2265.  2092.  2218.  2239.  2244.  2762.  4023.  6042.
  28.04  28.12  28.2   28.28  28.36  28.44  28.52  28.6   28.68  28.76
 109.64 109.72 109.8  109.88 109.96 110.04 110.12 110.2  110.28 110.36
  1676.  1615.  1463.  1584.  1735.  1550.  1572.  1664.  1549.  1637.
 209.544  78.5437 196.544 110.544 176.544
  77.84  77.92  78.    78.08  78.16  78.24  78.32  78.4   78.48  78.56
  2125.  2114.  2074.  2055.  2018.  2100.  2108.  2160.  2134.  2010.
  2728.  2758.  2662.  2542.  2451.  2389.  2447.  2335.  2424.  2294.
  54.84  54.92  55.    55.08  55.16  55.24  55.32  55.4   55.48  55.56
  3052.  3044.  2945.  2996.  3015.  3007.  3061.  2964.  3100.  3007.
  1841.  1923.  1929.  2059.  2353.  3052.  4337.  6841.  9522. 12001.
  33.44  33.52  33.6   33.68  33.76  33.84  33.92  34.    34.08  34.16
 115.04 115.12 115.2  115.28 115.36 115.44 115.52 115.6  115.68 115.76
  1633.  1568.  1636.  1688.  1560.  1587.  1867.  1701.  1770.  1650.
   10.8423  -57.1577  -17.1577    4.8423  -29.1577
  81.64  81.72  81.8   81.88  81.96  82.04  82.12  82.2   82.28  82.36
  1825.  1805.  1864.  1773.  1834.  1834.  1931.  1796.  1855.  1812.
  499.762  496.762  530.762  503.762
  54.64  54.72  54.8   54.88  54.96  55.04  55.12  55.2   55.28  55.36
  2213.  2308.  2193.  2311.  2219.  2237.  2284.  2319.  2182.  2299.
  1547.  1534.  1747.  1549.  1503.  1568.  1633.  1543.  1723.  1661.
 -1674.1 -1609.1 -1578.1 -1507.1
  90.84  90.92  91.    91.08  91.16  91.24  91.32  91.4   91.48  91.56
  2244.  2255.  2207.  2283.  2223.  2156.  2242.  2259.  2238.  2066.
 38.76 38.84 38.92 39.  ]","[-492.259 -579.259 -470.259 -512.259
  99.7412  52.7412]",579.741,12585.7,1610.26,11527.9,0.122563,0.877437,0.0440349,0.955965,150.753,138.818