File: Data Files/Full/p csv/Corrected_Depth_XRD_Data.csv
,file_name,omega,amorphous_percentage,crystalline_percentage,effective_depth,amorphous_percentage_intensity,crystalline_percentage_intensity,effective_depth_intensity,corrected_amorphous_percentage,corrected_crystalline_percentage,weight,corrected_amorphous_percentage_intensity,corrected_crystalline_percentage_intensity,weight_intensity,index_of_refraction,index_of_refraction_intensity,attenuation_coefficient,attenuation_coefficient_intensity,corrected_depth,corrected_depth_intensity
0,"MSS p (full, 0.01w).csv",0.01,0.991458,0.00854221,5.39389e-08,0.778557,0.221443,5.54755e-08,0.991458,0.00854221,1.0,0.778557,0.221443,1.0,(0.999993-1.983469202555925e-07j),(0.999993-1.9285273763453198e-07j),16178.8,15730.6,0.0248398,0.0255475
1,"MSS p (full, 0.025w).csv",0.025,1.04088,-0.0408775,1.33986e-07,0.801736,0.198264,1.3826e-07,1.07418,-0.0741785,0.402572,0.817268,0.182732,0.401241,(0.999993-2.0048163420911304e-07j),(0.999993-1.9385173248915736e-07j),16352.9,15812.1,0.0620126,0.0638254
2,"MSS p (full, 0.05w).csv",0.05,1.10913,-0.109126,2.65628e-07,0.630898,0.369102,2.82969e-07,1.17859,-0.17859,0.504411,0.467673,0.532327,0.488605,(0.999993-2.0317609703003992e-07j),(0.999993-1.848299726026505e-07j),16572.7,15076.2,0.123451,0.127365
3,"MSS p (full, 0.1w).csv",0.1,0.868895,0.131105,5.48129e-07,0.582798,0.417202,5.69678e-07,0.643013,0.356987,0.484608,0.535326,0.464674,0.496717,(0.999993-1.893548499674579e-07j),(0.999993-1.8657586220325862e-07j),15445.3,15218.6,0.244837,0.260115
4,"MSS p (full, 0.25w).csv",0.25,1.16006,-0.160065,1.31952e-06,0.27733,0.72267,1.48659e-06,1.36696,-0.366961,0.4154,0.087542,0.912458,0.383211,(0.999993-2.080372706514243e-07j),(0.999992-1.7502020994591418e-07j),16969.2,14276.1,0.625932,0.662159
5,"MSS p (full, 0.5w).csv",0.5,1.21165,-0.21165,2.6218e-06,0.178614,0.821386,3.01586e-06,1.26392,-0.263919,0.503289,0.0826536,0.917346,0.492925,(0.999993-2.0537812607419737e-07j),(0.999992-1.7489405974861257e-07j),16752.3,14265.8,1.21799,1.3659
6,"MSS p (full, 1w).csv",1.0,1.62204,-0.622039,4.98466e-06,0.163765,0.836235,6.04454e-06,2.0774,-1.0774,0.525974,0.148979,0.851021,0.498939,(0.999994-2.263711065274459e-07j),(0.999993-1.766056751929367e-07j),18464.6,14405.4,2.41604,2.77423
7,"MSS p (full, 2w).csv",2.0,1.26667,-0.266675,1.04127e-05,0.204668,0.795332,1.20156e-05,0.94034,0.05966,0.478708,0.246074,0.753926,0.503059,(0.999993-1.9702776083525703e-07j),(0.999993-1.791113447408432e-07j),16071.2,14609.8,4.61082,5.56535
8,"MSS p (full, 3w).csv",3.0,-4.74157,5.74157,6.36546e-05,0.162697,0.837303,1.81291e-05,-5.91662,6.91662,0.163582,0.0802056,0.919794,0.662779,(0.999989-2.007496452885905e-08j),(0.999992-1.748308865615472e-07j),1637.48,14260.6,7.05334,8.32015
9,"MSS p (full, 4w).csv",4.0,1.23303,-0.233034,2.09011e-05,0.266428,0.733572,2.38034e-05,-7.6624,8.6624,3.04552,0.597839,0.402161,0.761616,(0.999988+2.497692910031245e-08j),(0.999993-1.8818907321941707e-07j),-2037.32,15350.2,9.54925,11.0657
10,"MSS p (full, 5w).csv",5.0,1.66573,-0.665726,2.47629e-05,0.0589565,0.941044,3.06544e-05,4.00759,-3.00759,0.84405,-0.6619,1.6619,0.776511,(0.999995-2.7618217709160326e-07j),(0.999992-1.5567989163004627e-07j),22527.6,12698.5,26.4045,13.8518
11,"MSS p (full, 6w).csv",6.0,1.34714,-0.347138,3.08754e-05,0.0795211,0.920479,3.66531e-05,0.0564906,0.943509,0.802025,0.18461,0.81539,0.836338,(0.999992-1.7421888830286602e-07j),(0.999993-1.7752516389342519e-07j),14210.7,14480.4,50.8337,16.6569
12,"MSS p (full, 7w).csv",7.0,1.11156,-0.111556,3.70839e-05,0.0940819,0.905918,4.2642e-05,-0.0600156,1.06002,0.832583,0.183196,0.816804,0.859553,(0.999992-1.7121229646015234e-07j),(0.999993-1.7748868747182082e-07j),13965.4,14477.4,72.8126,19.3626
13,"MSS p (full, 8w).csv",8.0,5.80952,-4.80952,2.6438e-05,0.0621448,0.937855,4.89268e-05,-10.5554,11.5554,1.40267,-0.154549,1.15455,0.871548,(0.999986+9.963435799930224e-08j),(0.999992-1.687727521552255e-07j),-8126.98,13766.5,88.264,21.9582
14,"MSS p (full, 9w).csv",9.0,10.8546,-9.85461,2.11739e-05,0.0626852,0.937315,5.49907e-05,-14.4834,15.4834,1.24861,0.0670452,0.932955,0.889729,(0.999984+2.0100141755968784e-07j),(0.999992-1.7449126436576508e-07j),-16395.3,14232.9,90.4708,24.7029
15,"MSS p (full, 10w).csv",10.0,36.9158,-35.9158,9.45814e-06,0.0536117,0.946388,6.11238e-05,-10.1846,11.1846,2.2387,-0.0277428,1.02774,0.899661,(0.999986+9.00645616199797e-08j),(0.999992-1.7204513839543013e-07j),-7346.39,14033.4,92.7475,27.8242
16,"MSS p (full, 11w).csv",11.0,5.58065,-4.58065,3.69229e-05,0.0858231,0.914177,6.68453e-05,-5.21035,6.21035,0.256159,0.429944,0.570056,0.914407,(0.999989-3.830123752061086e-08j),(0.999993-1.8385633541675366e-07j),3124.16,14996.8,95.5905,30.9013
17,"MSS p (full, 12w).csv",12.0,34.4018,-33.4018,1.20171e-05,0.0473853,0.952615,7.32521e-05,-8.32567,9.32567,3.07252,-0.353657,1.35366,0.912538,(0.999987+4.209349587592588e-08j),(0.999992-1.6363450263404446e-07j),-3433.48,13347.3,98.4118,33.6209
18,"MSS p (full, 13w).csv",13.0,30.9186,-29.9186,1.4206e-05,0.0463206,0.953679,7.92679e-05,11.7958,-10.7958,0.845915,0.0333563,0.966644,0.924107,(1-4.771677056851384e-07j),(0.999992-1.7362188035978948e-07j),38921.6,14162,99.6635,36.3304
19,"MSS p (full, 14w).csv",14.0,17.3952,-16.3952,2.38544e-05,0.0502597,0.94974,8.51983e-05,-2.51646,3.51646,0.595532,0.102912,0.897088,0.930393,(0.999991-1.0782050250309966e-07j),(0.999992-1.75416859274048e-07j),8794.71,14308.4,100.91,39.0295
20,"MSS p (full, 15w).csv",15.0,6.35921,-5.35921,4.70962e-05,0.0517276,0.948272,9.11292e-05,-4.96763,5.96763,0.506503,0.0728136,0.927186,0.934918,(0.999989-4.4564958011827236e-08j),(0.999992-1.7464012643753433e-07j),3635.08,14245.1,103.471,41.7169
21,"MSS p (12-129, 16w).csv",16.0,0.765193,0.234807,8.77687e-05,0.138853,0.861147,9.58135e-05,-5.71232,6.71232,0.536594,1.83381,-0.833811,0.951111,(0.999989-2.5347285580427947e-08j),(0.999994-2.200849205920454e-07j),2067.53,17951.9,106.176,44.4822
22,"MSS p (13-129, 17w).csv",17.0,0.820322,0.179678,9.24143e-05,0.211885,0.788115,0.000100556,1.86187,-0.861873,0.949731,1.68743,-0.687425,0.952839,(0.999994-2.2080910749670972e-07j),(0.999993-2.1630725674003303e-07j),18011,17643.8,108.249,47.2812
23,"MSS p (14-129, 18w).csv",18.0,0.764832,0.235168,9.84022e-05,0.217514,0.782486,0.000106194,-0.0915686,1.09157,0.939148,0.317917,0.682083,0.946906,(0.999992-1.7039803115148215e-07j),(0.999993-1.8096534160467067e-07j),13899,14761,110.129,50.028
24,"MSS p (15-129, 19w).csv",19.0,0.959014,0.0409862,0.000101042,0.103814,0.896186,0.000113753,8.1964,-7.1964,0.973871,-1.49353,2.49353,0.933549,(0.999997-3.842797973338493e-07j),(0.999992-1.34218740235481e-07j),31344.9,10948,113.231,52.7056
25,"MSS p (16-129, 20w).csv",20.0,0.913074,0.0869263,0.000106789,0.109253,0.890747,0.000119406,0.105365,0.894635,0.946184,0.218713,0.781287,0.952659,(0.999992-1.7548015353666026e-07j),(0.999993-1.7840524923587246e-07j),14313.6,14552.2,116.998,55.3725
26,"MSS p (17-129, 21w).csv",21.0,0.988238,0.0117618,0.000110799,0.115241,0.884759,0.000125003,2.99013,-1.99013,0.963812,0.242968,0.757032,0.955222,(0.999994-2.4992533893040057e-07j),(0.999993-1.790311672164821e-07j),20385.9,14603.2,119.497,58.0549
27,"MSS p (18-129, 22w).csv",22.0,0.790924,0.209076,0.000118873,0.0849628,0.915037,0.000131251,-1.91695,2.91695,0.932082,-0.520822,1.52082,0.952398,(0.999991-1.232916341489248e-07j),(0.999992-1.593205936349201e-07j),10056.7,12995.5,120.74,60.7193
28,"MSS p (19-129, 23w).csv",23.0,0.940952,0.0590476,0.000121553,0.081259,0.918741,0.000136975,7.59433,-6.59433,0.977948,-0.00366332,1.00366,0.958209,(0.999997-3.687425628182351e-07j),(0.999992-1.7266654020514502e-07j),30077.6,14084.1,122.558,63.221
29,"MSS p (20-129, 24w).csv",24.0,0.859799,0.140201,0.000127891,0.0733328,0.926667,0.000142753,-0.696478,1.69648,0.950439,-0.11457,1.11457,0.959525,(0.999992-1.5478756911074775e-07j),(0.999992-1.6980444174756639e-07j),12625.7,13850.6,125.477,65.6785
30,"MSS p (21-129, 25w).csv",25.0,0.922038,0.0779624,0.000131799,0.125303,0.874697,0.000147197,2.9589,-1.9589,0.97035,1.79483,-0.794825,0.969811,(0.999994-2.4911935824273905e-07j),(0.999994-2.1907884581686872e-07j),20320.2,17869.8,128.191,68.2741