File: Data Files/Full/p csv/Processed_XRD_Data.csv
,omega,Position,Intensity,amorphous_range,crystalline_range,amorphous_fit_amplitude,amorphous_fit_amplitude_uncertainty,amorphous_fit_mean,amorphous_fit_mean_uncertainty,amorphous_fit_std_dev,amorphous_fit_std_dev_uncertainty,amorphous_fit_background,amorphous_fit_background_uncertainty,chi_squared_amorphous,amorphous_nu,chi_squared_amorphous_p,amorphous_fit_amorphous_x_range_used,amorphous_fit_amorphous_y_range_used,crystalline_fit_amplitude,crystalline_fit_amplitude_uncertainty,crystalline_fit_mean,crystalline_fit_mean_uncertainty,crystalline_fit_std_dev,crystalline_fit_std_dev_uncertainty,crystalline_fit_background,crystalline_fit_background_uncertainty,chi_squared_crystalline,crystalline_nu,chi_squared_crystalline_p,crystalline_fit_crystalline_x_range_used,crystalline_fit_crystalline_y_range_used,max_amorphous,max_crystalline,amorphous_area,crystalline_area,amorphous_percentage,crystalline_percentage,amorphous_percentage_intensity,crystalline_percentage_intensity,effective_depth,effective_depth_intensity
"MSS p (full, 0.01w).csv",0.01,"[4.0000e-02 1.2000e-01 2.0000e-01 2.8000e-01 3.6000e-01 4.4000e-01
 4.6600e+01 4.6680e+01 4.6760e+01 4.6840e+01 4.6920e+01 4.7000e+01
 9.3160e+01 9.3240e+01 9.3320e+01 9.3400e+01 9.3480e+01 9.3560e+01
 5.010000e+02 5.770000e+02 5.380000e+02 4.950000e+02 5.660000e+02
 7.700000e+01 7.400000e+01 6.900000e+01 7.400000e+01 6.500000e+01
 5.700000e+01 4.900000e+01 4.000000e+01 3.900000e+01 5.800000e+01
 2.060000e+02 1.830000e+02 1.820000e+02 1.840000e+02 1.900000e+02
 1.7800e+01 1.7880e+01 1.7960e+01 1.8040e+01 1.8120e+01 1.8200e+01
 6.4360e+01 6.4440e+01 6.4520e+01 6.4600e+01 6.4680e+01 6.4760e+01
 1.1092e+02 1.1100e+02 1.1108e+02 1.1116e+02 1.1124e+02 1.1132e+02
 3.770000e+02 3.630000e+02 3.840000e+02 3.480000e+02 3.390000e+02
 6.700000e+01 5.800000e+01 6.800000e+01 6.900000e+01 7.400000e+01
 8.200000e+01 6.100000e+01 7.900000e+01 7.200000e+01 6.600000e+01
 487.514 495.514 506.514 564.514 484.514
 3.8920e+01 3.9000e+01 3.9080e+01 3.9160e+01 3.9240e+01 3.9320e+01
 8.5480e+01 8.5560e+01 8.5640e+01 8.5720e+01 8.5800e+01 8.5880e+01
 8.925000e+03 8.832000e+03 8.292000e+03 8.079000e+03 8.131000e+03
 1.160000e+02 1.250000e+02 1.320000e+02 1.160000e+02 1.190000e+02
 6.100000e+01 6.600000e+01 7.500000e+01 6.400000e+01 7.000000e+01
 1.750000e+02 1.640000e+02 1.790000e+02 1.640000e+02 1.530000e+02
 8.6800e+00 8.7600e+00 8.8400e+00 8.9200e+00 9.0000e+00 9.0800e+00
 5.5240e+01 5.5320e+01 5.5400e+01 5.5480e+01 5.5560e+01 5.5640e+01
 1.0180e+02 1.0188e+02 1.0196e+02 1.0204e+02 1.0212e+02 1.0220e+02
 7.980000e+02 8.350000e+02 8.240000e+02 8.240000e+02 8.250000e+02
 1.000000e+02 9.800000e+01 1.270000e+02 1.180000e+02 1.260000e+02
 8.000000e+01 7.900000e+01 8.800000e+01 8.000000e+01 8.200000e+01
 20.6  20.68 20.76 20.84 20.92 21.   21.08 21.16 21.24 21.32 21.4  21.48
 1.6360e+01 1.6440e+01 1.6520e+01 1.6600e+01 1.6680e+01 1.6760e+01
 6.2920e+01 6.3000e+01 6.3080e+01 6.3160e+01 6.3240e+01 6.3320e+01
 1.0948e+02 1.0956e+02 1.0964e+02 1.0972e+02 1.0980e+02 1.0988e+02
 1.282000e+03 1.248000e+03 1.215000e+03 1.250000e+03 1.178000e+03
 1.880000e+02 1.960000e+02 2.230000e+02 1.950000e+02 2.080000e+02
 1.270000e+02 1.360000e+02 1.600000e+02 1.470000e+02 1.360000e+02
  103.736   87.7358  100.736  154.736   40.7358
 2.0200e+01 2.0280e+01 2.0360e+01 2.0440e+01 2.0520e+01 2.0600e+01
 6.6760e+01 6.6840e+01 6.6920e+01 6.7000e+01 6.7080e+01 6.7160e+01
 1.1332e+02 1.1340e+02 1.1348e+02 1.1356e+02 1.1364e+02 1.1372e+02
 8.510000e+02 8.670000e+02 8.590000e+02 8.350000e+02 7.800000e+02
 2.330000e+02 2.530000e+02 2.560000e+02 2.220000e+02 2.160000e+02
 2.000000e+02 1.890000e+02 2.100000e+02 1.970000e+02 1.950000e+02
  157.522  140.522  201.522  178.522
 1.5880e+01 1.5960e+01 1.6040e+01 1.6120e+01 1.6200e+01 1.6280e+01
 6.2440e+01 6.2520e+01 6.2600e+01 6.2680e+01 6.2760e+01 6.2840e+01
 1.0900e+02 1.0908e+02 1.0916e+02 1.0924e+02 1.0932e+02 1.0940e+02
 2.163000e+03 2.178000e+03 2.282000e+03 2.235000e+03 2.139000e+03
 4.260000e+02 4.200000e+02 4.410000e+02 4.040000e+02 4.570000e+02
 2.780000e+02 3.060000e+02 2.420000e+02 3.060000e+02 2.630000e+02
  102.695  71.6952  66.6952  50.6952
 1.6840e+01 1.6920e+01 1.7000e+01 1.7080e+01 1.7160e+01 1.7240e+01
 6.3400e+01 6.3480e+01 6.3560e+01 6.3640e+01 6.3720e+01 6.3800e+01
 1.0996e+02 1.1004e+02 1.1012e+02 1.1020e+02 1.1028e+02 1.1036e+02
 2.112000e+03 2.107000e+03 2.034000e+03 2.145000e+03 2.074000e+03
 5.060000e+02 5.580000e+02 5.420000e+02 5.540000e+02 4.990000e+02
 3.730000e+02 3.460000e+02 3.310000e+02 3.290000e+02 3.510000e+02
  295.049  289.049  293.049  314.049
 1.5400e+01 1.5480e+01 1.5560e+01 1.5640e+01 1.5720e+01 1.5800e+01
 6.1960e+01 6.2040e+01 6.2120e+01 6.2200e+01 6.2280e+01 6.2360e+01
 1.0852e+02 1.0860e+02 1.0868e+02 1.0876e+02 1.0884e+02 1.0892e+02
 4.194000e+03 4.072000e+03 4.031000e+03 4.144000e+03 4.050000e+03
 9.620000e+02 9.050000e+02 9.450000e+02 9.080000e+02 9.250000e+02
 6.430000e+02 6.190000e+02 6.070000e+02 6.470000e+02 6.060000e+02
  900.809  941.809  841.809  912.809
 1.2520e+01 1.2600e+01 1.2680e+01 1.2760e+01 1.2840e+01 1.2920e+01
 5.9080e+01 5.9160e+01 5.9240e+01 5.9320e+01 5.9400e+01 5.9480e+01
 1.0564e+02 1.0572e+02 1.0580e+02 1.0588e+02 1.0596e+02 1.0604e+02
 3.04300e+03 3.11900e+03 3.16100e+03 3.16700e+03 2.89700e+03 2.95300e+03
 1.13100e+03 8.50000e+02 7.35000e+02 7.55000e+02 7.49000e+02 7.87000e+02
 2.26000e+03 3.48300e+03 4.35500e+03 4.43400e+03 3.83100e+03 2.61300e+03
  1424.33  1441.33  1502.33  1306.33
  39.44  39.52  39.6   39.68  39.76  39.84  39.92  40.    40.08  40.16
 117.04 117.12 117.2  117.28 117.36 117.44 117.52 117.6  117.68 117.76
 2.80210e+04 3.05540e+04 2.77150e+04 2.04450e+04 1.18220e+04 6.41000e+03
 2.04600e+03 2.03000e+03 1.95100e+03 1.94700e+03 1.96600e+03 1.83000e+03
 22.56 22.64 22.72 22.8  22.88 22.96 23.04 23.12 23.2  23.28 23.36 23.44
  28.44  28.52  28.6   28.68  28.76  28.84  28.92  29.    29.08  29.16
 106.04 106.12 106.2  106.28 106.36 106.44 106.52 106.6  106.68 106.76
   2007.   1925.   1944.   1968.   1882.   1978.   1865.   1930.   2043.
   1389.   1254.   1280.   1357.   1258.   1203.   1343.   1386.   1286.
  -693.62   275.38  1670.38  3239.38  3724.38
  75.84  75.92  76.    76.08  76.16  76.24  76.32  76.4   76.48  76.56
   3150   2984   3028   3081   2942   2958   3003   2925   2822   2931
   1007    955    983   1047    988    951    995   1014    978   1004
  -14.6073 -145.607  -28.6073  -73.6073]",10758.8,225.126,63.8764,0.00406047,0.168051,0.00406047,1408.41,28.6351,727.129,48,4.12202e-122,"[62.   62.08 62.16 62.24 62.32 62.4  62.48 62.56 62.64 62.72 62.8  62.88
  68.04  68.12  68.2   68.28  68.36  68.44  68.52  68.6   68.68  68.76
   3988.   4066.   4016.   3944.   4032.   4076.   4086.   4083.   4143.
   3147.   2955.   2941.   2879.   2839.   2638.   2612.   2585.   2467.
 2195.38 2146.38 2196.38 2040.38 2139.38
  59.44  59.52  59.6   59.68  59.76  59.84  59.92  60.    60.08  60.16
 5.867000e+03 5.980000e+03 5.916000e+03 5.807000e+03 5.757000e+03
 3.235000e+03 3.493000e+03 4.103000e+03 5.932000e+03 9.036000e+03
 1.819500e+04 2.086800e+04 2.425500e+04 3.167300e+04 6.528500e+04
 2.486000e+03 2.711000e+03 2.573000e+03 2.621000e+03 2.771000e+03
  17.24  17.32  17.4   17.48  17.56  17.64  17.72  17.8   17.88  17.96
  94.84  94.92  95.    95.08  95.16  95.24  95.32  95.4   95.48  95.56
  3122.  3083.  3139.  3247.  3389.  4326.  6355.  9042. 12300. 14106.
  2881.  2678.  2739.  2743.  2725.  2843.  2805.  2856.  3074.  3776.
  24.64  24.72  24.8   24.88  24.96  25.04  25.12  25.2   25.28  25.36
 102.24 102.32 102.4  102.48 102.56 102.64 102.72 102.8  102.88 102.96
  3230.  3154.  3098.  3161.  3249.  3274.  3266.  3122.  3086.  3193.
 23.6  23.68 23.76 23.84 23.92 24.   24.08 24.16 24.24 24.32 24.4  24.48
  10.44  10.52  10.6   10.68  10.76  10.84  10.92  11.    11.08  11.16
  88.04  88.12  88.2   88.28  88.36  88.44  88.52  88.6   88.68  88.76
  2867.  2897.  2894.  2861.  2840.  2862.  2808.  2981.  2982.  3102.
  2383.  2372.  2343.  2441.  2324.  2451.  2416.  2572.  2513.  2458.
  10.64  10.72  10.8   10.88  10.96  11.04  11.12  11.2   11.28  11.36
  88.24  88.32  88.4   88.48  88.56  88.64  88.72  88.8   88.88  88.96
  2788.  2725.  2686.  2729.  2696.  2756.  2770.  2829.  2787.  2799.
  2349.  2464.  2518.  2494.  2403.  2431.  2437.  2469.  2438.  2514.
  2194.37  2211.37  2054.37  1855.37
  85.24  85.32  85.4   85.48  85.56  85.64  85.72  85.8   85.88  85.96
  2716.  2758.  2730.  2837.  2933.  3343.  3664.  3549.  3534.  3713.
  2378.  2358.  2343.  2365.  2336.  2330.  2494.  2518.  2565.  2568.
  1362.29  1110.29  1261.29]",3021.29,57092.3,-40275.6,31203.8,4.43965,-3.43965,0.0502597,0.94974,51.6109,85.1983
  87.84  87.92  88.    88.08  88.16  88.24  88.32  88.4   88.48  88.56
  2674.  2614.  2540.  2562.  2486.  2594.  2490.  2456.  2482.  2536.
  2524.  2432.  2506.  2438.  2436.  2521.  2477.  2486.  2408.  2477.
 47975.9 46932.9 45173.9 43515.9
  84.84  84.92  85.    85.08  85.16  85.24  85.32  85.4   85.48  85.56
  2496.  2443.  2494.  2501.  2532.  2542.  2454.  2480.  2599.  2397.
  2372.  2281.  2253.  2303.  2293.  2466.  2351.  2306.  2379.  2397.
  25.84  25.92  26.    26.08  26.16  26.24  26.32  26.4   26.48  26.56
 103.44 103.52 103.6  103.68 103.76 103.84 103.92 104.   104.08 104.16
  2060.  2030.  2025.  2028.  2082.  1995.  2006.  2023.  2001.  1979.
 3743.78 3820.78 3927.78 3724.78 4032.78
  54.84  54.92  55.    55.08  55.16  55.24  55.32  55.4   55.48  55.56
  2919.  2886.  3145.  3164.  3228.  3264.  3286.  3193.  3423.  3372.
  2043.  2128.  2077.  2015.  2134.  1953.  2045.  2031.  2058.  2053.
  21.44  21.52  21.6   21.68  21.76  21.84  21.92  22.    22.08  22.16
  99.04  99.12  99.2   99.28  99.36  99.44  99.52  99.6   99.68  99.76
  2326.  2325.  2261.  2317.  2319.  2345.  2325.  2297.  2420.  2390.
 32.4  32.48 32.56 32.64 32.72 32.8  32.88 32.96]","[-690.314 -668.314 -632.314 -708.314 -606.314
  50.44  50.52  50.6   50.68  50.76  50.84  50.92  51.    51.08  51.16
 128.04 128.12 128.2  128.28 128.36 128.44 128.52 128.6  128.68 128.76
  2086.  2053.  2169.  2169.  2109.  2067.  2064.  2054.  2030.  2015.
"MSS p (17-129, 21w).csv",21.0,"[ 17.04  17.12  17.2   17.28  17.36  17.44  17.52  17.6   17.68  17.76
  94.64  94.72  94.8   94.88  94.96  95.04  95.12  95.2   95.28  95.36
  2435.  2493.  2377.  2370.  2402.  2339.  2428.  2498.  2451.  2450.
  404.375  517.375  635.375  648.375  585.375
  69.24  69.32  69.4   69.48  69.56  69.64  69.72  69.8   69.88  69.96
 2097. 1996. 2125. 1950. 1993. 2058. 1970. 2016. 2059. 2129. 2048. 2071.
 26.36 26.44 26.52 26.6  26.68 26.76 26.84 26.92 27.   27.08 27.16 27.24
  71.04  71.12  71.2   71.28  71.36  71.44  71.52  71.6   71.68  71.76
 1958. 1967. 1920. 1942. 2076. 2029. 2014. 2085. 2008. 1963. 2002. 1998.
  348.879  346.879  441.879  437.879  488.879
  77.64  77.72  77.8   77.88  77.96  78.04  78.12  78.2   78.28  78.36
 1867. 1822. 1755. 1813. 1864. 1833. 1733. 1772. 1767. 1704. 1851. 1703.
 6049.75 5897.75 5143.75 3991.75 2656.75
  95.44  95.52  95.6   95.68  95.76  95.84  95.92  96.    96.08  96.16
 1525. 1496. 1455. 1460. 1483. 1665. 1669. 1564. 1748. 1644. 1705. 1695.
   34.9693  -75.0307  -45.0307]",766.969,5353.97,-8844.66,-481.174,0.948404,0.0515958,0.125303,0.874697,131.345,147.197