File: Data Files/Full/p csv/Processed_XRD_Data_with_some_graphs.csv
,omega,Position,Intensity,amorphous_range,crystalline_range,amorphous_fit_amplitude,amorphous_fit_amplitude_uncertainty,amorphous_fit_mean,amorphous_fit_mean_uncertainty,amorphous_fit_std_dev,amorphous_fit_std_dev_uncertainty,amorphous_fit_background,amorphous_fit_background_uncertainty,amorphous_fit_amorphous_x_range_used,amorphous_fit_amorphous_y_range_used,crystalline_fit_amplitude,crystalline_fit_amplitude_uncertainty,crystalline_fit_mean,crystalline_fit_mean_uncertainty,crystalline_fit_std_dev,crystalline_fit_std_dev_uncertainty,crystalline_fit_background,crystalline_fit_background_uncertainty,crystalline_fit_crystalline_x_range_used,crystalline_fit_crystalline_y_range_used,amorphous_area,crystalline_area,amorphous_percentage,crystalline_percentage,effective_depth
"MSS p (full, 0.01w).csv",0.01,[4.0000e-02 1.2000e-01 2.0000e-01 ... 1.2876e+02 1.2884e+02 1.2892e+02],"[2.281857e+06 1.344978e+06 6.025790e+05 ... 2.020000e+02 2.070000e+02
 20.2  20.28 20.36 20.44 20.52 20.6  20.68 20.76 20.84 20.92 21.   21.08
 454. 490. 454. 464. 450. 514. 455. 537. 493. 509. 486. 478. 458. 497.
 230.]",45.6083,13.3157,31.112,0.0551876,0.41199,0.08860447,113.544,5.95885,"[30.52 30.6  30.68 30.76 30.84 30.92 31.   31.08 31.16 31.24 31.32 31.4
 17.88 17.96 18.04 18.12 18.2  18.28 18.36 18.44 18.52 18.6  18.68 18.76
 26.52 26.6  26.68 26.76 26.84 26.92 27.   27.08 27.16 27.24 27.32 27.4
 464. 476. 491. 463. 450. 479. 422. 397. 428. 404. 346. 367. 410. 377.
 15.96 16.04 16.12 16.2  16.28 16.36 16.44 16.52 16.6  16.68 16.76 16.84
 24.6  24.68 24.76 24.84 24.92 25.   25.08 25.16 25.24 25.32 25.4  25.48
 873. 849. 846. 915. 904. 959. 904. 861. 886. 875. 895. 865. 869. 823.
 272. 241. 241. 225. 186. 203. 190. 206. 208. 206. 207.]",9136.8,578.371,0.936699,0.0633013,0.27163
 17.72 17.8  17.88 17.96 18.04 18.12 18.2  18.28 18.36 18.44 18.52 18.6
 26.36 26.44 26.52 26.6  26.68 26.76 26.84 26.92 27.   27.08 27.16 27.24
  825.  851.  799.  849.  825.  832.  857.  923.  835.  850.  859.  945.
  661.  683.  671.  610.  665.  627.  596.  576.  588.  575.  576.  590.
"MSS p (full, 0.25w).csv",0.25,[4.0000e-02 1.2000e-01 2.0000e-01 ... 1.2876e+02 1.2884e+02 1.2892e+02],"[2.279273e+06 1.360637e+06 5.971890e+05 ... 2.960000e+02 2.990000e+02
 1167. 1134. 1174. 1164. 1211. 1149. 1199. 1231. 1171. 1284. 1266. 1306.
  624.  635.  615.  588.  599.  573.  598.  581.  567.  538.  588.  571.
  451.  498.  537.  479.  510.  504.  478.  454.  534.  497.  521.  480.
 1140. 1197. 1151. 1198. 1207. 1188. 1171. 1175. 1142. 1084. 1126. 1143.
  481.  480.  490.  492.  451.  500.  484.  486.  467.  432.  424.  407.
 13.96 14.04 14.12 14.2  14.28 14.36 14.44 14.52 14.6  14.68 14.76 14.84
 22.6  22.68 22.76 22.84 22.92 23.   23.08 23.16 23.24 23.32 23.4  23.48
  812.  835.  840.  841.  811.  900.  804.  803.  857.  881.  826.  902.
 2270. 2327. 2273. 2349. 2215. 2355. 2312. 2219. 2283. 2229. 2163. 2178.
  858.  880.  858.  814.  832.  797.  873.  800.  822.  786.]",2858.55,43.9548,32.9816,0.001935375,0.136589,0.00211131,703.207,36.47,"[32.04 32.12 32.2  32.28 32.36 32.44 32.52 32.6  32.68 32.76 32.84 32.92
 14.92 15.   15.08 15.16 15.24 15.32 15.4  15.48 15.56 15.64 15.72 15.8
 23.56 23.64 23.72 23.8  23.88 23.96 24.04 24.12 24.2  24.28 24.36 24.44
 32.2  32.28 32.36 32.44 32.52 32.6  32.68 32.76 32.84 32.92 33.   33.08
 2134. 2185. 2221. 2200. 2257. 2237. 2201. 2285. 2342. 2340. 2410. 2324.
 1137. 1090. 1133. 1216. 1133. 1170. 1085. 1128. 1121. 1066. 1031. 1068.
 55.88 55.96]","[  624.   610.   605.   644.   653.   606.   642.   633.   654.   624.
 17.88 17.96 18.04 18.12 18.2  18.28 18.36 18.44 18.52 18.6  18.68 18.76
 26.52 26.6  26.68 26.76 26.84 26.92 27.   27.08 27.16 27.24 27.32 27.4
 2421. 2462. 2362. 2433. 2486. 2423. 2490. 2533. 2549. 2461. 2471. 2625.
 3835. 3639. 3786. 3752. 3596. 3631. 3619. 3634. 3598. 3458. 3476. 3530.
 1723. 1763. 1744. 1717. 1792. 1670. 1715. 1626. 1521. 1602. 1500. 1650.
 1.951360e+06 3.135552e+06 3.955511e+06 3.247690e+06 2.023044e+06
 15.8  15.88 15.96 16.04 16.12 16.2  16.28 16.36 16.44 16.52 16.6  16.68
 24.44 24.52 24.6  24.68 24.76 24.84 24.92 25.   25.08 25.16 25.24 25.32
 33.08 33.16 33.24 33.32 33.4  33.48 33.56 33.64 33.72 33.8  33.88 33.96
 1939. 1959. 2000. 1940. 2016. 2031. 2087. 2091. 2071. 2078. 2069. 2065.
 3103. 3043. 3119. 3161. 3167. 2897. 2953. 2901. 3058. 3001. 2894. 2953.
 1266. 1339. 1400. 1431. 1410. 1291. 1305. 1360. 1413. 1424. 1271. 1342.
 58.92 59.   59.08 59.16 59.24 59.32 59.4  59.48 59.56 59.64 59.72 59.8
"MSS p (full, 5w).csv",5,[  1.04   1.12   1.2  ... 128.8  128.88 128.96],[631313. 746421. 822223. ...   1772.   1754.   1783.],"[12.0, 31.0]","[59.0, 61.0]",22550.1,429.782,21.4805,0.0250245,3.37586,0.0458062,3104.07,23.2185,"[12.   12.08 12.16 12.24 12.32 12.4  12.48 12.56 12.64 12.72 12.8  12.88
 20.64 20.72 20.8  20.88 20.96 21.04 21.12 21.2  21.28 21.36 21.44 21.52
 29.28 29.36 29.44 29.52 29.6  29.68 29.76 29.84 29.92 30.   30.08 30.16
 5349. 5391. 5352. 5600. 5330. 5470. 5565. 5457. 5627. 5629. 5716. 5571.
 3417. 3282. 3392. 3328. 3352. 3333. 3333. 3305. 3195. 3196. 3222. 3137.
 14.92 15.   15.08 15.16 15.24 15.32 15.4  15.48 15.56 15.64 15.72 15.8
 23.56 23.64 23.72 23.8  23.88 23.96 24.04 24.12 24.2  24.28 24.36 24.44
 32.2  32.28 32.36 32.44 32.52 32.6  32.68 32.76 32.84 32.92 33.  ]","[3035. 3151. 3158. 3160. 3196. 3194. 3085. 3195. 3175. 3146. 3227. 3169.
 5375. 5280. 5260. 5338. 5410. 5354. 5323. 5242. 5081. 5288. 5311. 5212.
 2698. 2758. 2737. 2663. 2709. 2589. 2634. 2725. 2562. 2567. 2608. 2517.
"MSS p (full, 7w).csv",7,[  3.04   3.12   3.2  ... 128.8  128.88 128.96],[136331 130739 127712 ...   1513   1401   1503],"[14.5, 34.0]","[62.0, 66.0]",25152.8,452.647,21.4662,0.0285563,4.15237,0.0511882,2314.61,20.8719,"[14.56 14.64 14.72 14.8  14.88 14.96 15.04 15.12 15.2  15.28 15.36 15.44
 23.2  23.28 23.36 23.44 23.52 23.6  23.68 23.76 23.84 23.92 24.   24.08
 31.84 31.92 32.   32.08 32.16 32.24 32.32 32.4  32.48 32.56 32.64 32.72
 4810 4844 4642 4667 4701 4727 4666 4718 4637 4507 4666 4540 4433 4547
 2347 2357 2238 2310 2326 2279 2336 2337 2344 2175 2259 2334 2171 2346
  1289  1255  1225]",68905.9,17209.5,0.750247,0.249753,38.8837
 4415. 4449. 4384. 4454. 4411. 4442. 4423. 4421. 4441. 4466. 4528. 4445.
 2512. 2520. 2502. 2513. 2411. 2562. 2518. 2505. 2375. 2384. 2458. 2358.
 17.84 17.92 18.   18.08 18.16 18.24 18.32 18.4  18.48 18.56 18.64 18.72
 26.48 26.56 26.64 26.72 26.8  26.88 26.96 27.04 27.12 27.2  27.28 27.36
  5679.  5604.  5797.  5848.  5930.  6073.  5902.  5993.  6089.  5996.
  8003.  8189.  7919.  7925.  7978.  8132.  8010.  8012.  8107.  7894.
  4865.  4753.  4879.  4853.  4804.  4718.  4616.  4769.  4540.  4628.
 88.88 88.96]","[6.642000e+03 7.005000e+03 7.293000e+03 7.818000e+03 8.242000e+03
 5056. 5250. 5324. 5081. 5301. 5297. 5377. 5285. 5484. 5445. 5496. 5491.
 5385. 5456. 5231. 5385. 5382. 5322. 5286. 5236. 5120. 5109. 5136. 5131.
 11834. 21025. 35260. 53085. 66932. 73638. 74855. 71781. 68715. 63527.
 5866. 5695. 5811. 5885. 5800. 5826. 5943. 5994. 5985. 6104. 6006. 6146.
 4240. 4249. 4373. 4275. 4309. 4192. 4423. 4179. 4184. 4300. 4045. 3987.
  8076.  8483. 11779. 20519. 34744. 53687. 67091. 74174. 75880. 72552.
 6417. 6632. 6710. 5853. 5827. 5746. 5765. 5780. 5679. 5632. 5533. 5568.
 3334. 3407. 3418. 3405. 3499. 3471. 3350. 3427. 3492. 3404. 3311. 3414.
"MSS p (full, 13w).csv",13,[  9.04   9.12   9.2  ... 128.8  128.88 128.96],[3627. 3647. 3682. ... 2673. 2677. 2740.],"[13.0, 36.0]","[23.0, 27.0]",32594.1,682.704,22.1173,0.04154,4.52896,0.0634021,3228.96,27.372,"[13.04, 13.12, 13.2, 13.28, 13.36, 13.44, 13.52, 13.6, 13.68, 13.76, 13.84, 13.92, 14.0, 14.08, 14.16, 14.24, 14.32, 14.4, 14.48, 14.56, 14.64, 14.72, 14.8, 14.88, 14.96, 15.04, 15.12, 15.2, 15.28, 15.36, 15.44, 15.52, 15.6, 15.68, 15.76, 15.84, 15.92, 16.0, 16.08, 16.16, 16.24, 16.32, 16.4, 16.48, 16.56, 16.64, 16.72, 16.8, 16.88, 16.96, 17.04, 17.12, 17.2, 17.28, 17.36, 17.44, 17.52, 17.6, 17.68, 17.76, 17.84, 17.92, 18, 18.08, 18.16, 18.24, 18.32, 18.4, 18.48, 18.56, 18.64, 18.72, 18.8, 18.88, 18.96, 19.04, 19.12, 19.2, 19.28, 19.36, 19.44, 19.52, 19.6, 19.68, 19.76, 19.84, 19.92, 20, 20.08, 20.16, 20.24, 20.32, 20.4, 20.48, 20.56, 20.64, 20.72, 20.8, 20.88, 20.96, 21.04, 21.12, 21.2, 21.28, 21.36, 21.44, 21.52, 21.6, 21.68, 21.76, 21.84, 21.92, 22, 22.08, 22.16, 22.24, 22.32, 22.4, 22.48, 22.56, 22.64, 22.72, 22.8, 22.88, 22.96, 26.96, 27.04, 27.12, 27.2, 27.28, 27.36, 27.44, 27.52, 27.6, 27.68, 27.76, 27.84, 27.92, 28, 28.08, 28.16, 28.24, 28.32, 28.4, 28.48, 28.56, 28.64, 28.72, 28.8, 28.88, 28.96, 29.04, 29.12, 29.2, 29.28, 29.36, 29.44, 29.52, 29.6, 29.68, 29.76, 29.84, 29.92, 30, 30.08, 30.16, 30.24, 30.32, 30.4, 30.48, 30.56, 30.64, 30.72, 30.8, 30.88, 30.96, 31.04, 31.12, 31.2, 31.28, 31.36, 31.44, 31.52, 31.6, 31.68, 31.76, 31.84, 31.92, 32, 32.08, 32.16, 32.24, 32.32, 32.4, 32.48, 32.56, 32.64, 32.72, 32.8, 32.88, 32.96, 33.04, 33.12, 33.2, 33.28, 33.36, 33.44, 33.52, 33.6, 33.68, 33.76, 33.84, 33.92, 34, 34.08, 34.16, 34.24, 34.32, 34.4, 34.48, 34.56, 34.64, 34.72, 34.8, 34.88, 34.96, 35.04, 35.12, 35.2, 35.28, 35.36, 35.44, 35.52, 35.6, 35.68, 35.76, 35.84, 35.92]","[3951. 4005. 4189. 4060. 4054. 4085. 4106. 4030. 4156. 4021. 4069. 4106.
 6188. 6273. 6204. 6348. 6113. 6229. 6298. 6328. 6279. 6050. 6160. 6113.
 3230. 3276. 3171. 3275. 3158. 3130. 3205. 3118. 3210. 3208. 3187. 3080.
 3958. 3962. 4066. 3936. 3998. 4000. 4090. 4079. 4155. 4031. 4163. 4112.
 5340. 5263. 5217. 5204. 5265. 5165. 4127. 4226. 4065. 4111. 4155. 4088.
 2925. 2857. 2869. 2817. 2835. 2819. 2911. 2855. 2837. 2818.]",46029.6,1320.33,27.3549,0.007944172,0.314364,0.008843725,4232.21,510.612,"[25, 25.08, 25.16, 25.24, 25.32, 25.4, 25.48, 25.56, 25.64, 25.72, 25.8, 25.88, 25.96, 26.04, 26.12, 26.2, 26.28, 26.36, 26.44, 26.52, 26.6, 26.68, 26.76, 26.84, 26.92, 27, 27.08, 27.16, 27.24, 27.32, 27.4, 27.48, 27.56, 27.64, 27.72, 27.8, 27.88, 27.96, 28.04, 28.12, 28.2, 28.28, 28.36, 28.44, 28.52, 28.6, 28.68, 28.76, 28.84, 28.92]","[ 5114.  5088.  5086.  5067.  5082.  5095.  5060.  5135.  5129.  5004.
 4607. 4649. 4610. 4454. 4541. 4640. 4656. 4760. 4765. 4953. 4876. 4688.
 3626. 3454. 3468. 3437. 3351. 3405. 3306. 3324. 3230. 3412. 3285. 3366.
  4595.  5290.  8681. 15436. 26700. 39847. 48102. 51105. 50832. 49789.
  4117.  4036.  3888.  3866.  3739.  3688.  3711.  3696.  3923.]",94152.9,54205.4,0.424283,0.575717,86.3601
,,,,,,,,,,,,,,,,,,,,,,,,,,,,,,
,,,,,0.529826,0.291958,,0.004253536,,0.209894,,0,2.67998,,,0.291958,,0.001773833,,0.215064,,0.05248033,,,,,,,,
,,,,,,0.0705991,,0.002687305,,0.0391578,,0.116297,,,,0.100394,,0.000290625,,0.0842633,,0.0424645,,,,,,,,
,,,,,,0.0754235,,0.002306272,,0.0395878,,0.121026,,,,0.0368715,,0.000158514,,0.0364503,,0.02193848,,,,,,,,
,,,,,,0.0505571,,0.003327981,,0.0360247,,0.029208,,,,0.0417773,,0.00020667,,0.0391875,,0.0341985,,,,,,,,
,,,,,,0.0183992,,0.00148856,,0.01402879,,0.01431131,,,,0.0222444,,8.37464E-05,,0.0199412,,0.0494086,,,,,,,,
,,,,,,0.0165804,,0.001373327,,0.0124179,,0.0127694,,,,0.0168076,,6.69935E-05,,0.016843,,0.042508,,,,,,,,
,,,,,,0.0217237,,0.001374113,,0.0159548,,0.0180313,,,,0.0153766,,5.86805E-05,,0.0154574,,0.0518624,,,,,,,,
,,,,,,0.0282417,,0.002148919,,0.02113609,,0.0232927,,,,0.0129106,,3.38232E-05,,0.0139874,,0.0847244,,,,,,,,
,,,,,,0.08677658,,0.005475377,,0.0543069,,0.0684793,,,,0.0101652,,2.45829E-05,,0.0107856,,0,-1.29532,,,,,,,
,,,,,,0.0585458,,0.005370718,,0.0399016,,0.04654637,,,,0.0126267,,3.47172E-05,,0.0137877,,0.0651605,,,,,,,,
,,,,,,0.019059,,0.001164986,,0.0135688,,0.007480022,,,,0.0110086,,2.70193E-05,,0.0105819,,0.0943359,,,,,,,,
,,,,,,0.0219305,,0.001420921,,0.0147921,,0.0108137,,,,0.02773211,,7.29732E-05,,0.0287211,,0.100902,,,,,,,,
,,,,,,0.0179959,,0.001330293,,0.0123275,,0.009017483,,,,0.004836455,,1.3521E-05,,0.005139428,,0.0203315,,,,,,,,
,,,,,,0.09852012,,0.003912085,,0.0534156,,0.05129587,,,,0.0123587,,9.82706E-05,,0.0107633,,0.0618647,,,,,,,,
,,,,,,0.0129395,,0.000225653,,0.01459505,,0.0171163,,,,0.006374389,,1.05772E-05,,0.006703982,,0,-54.0615,,,,,,,
,,,,,,0.0136928,,0.001270739,,0.0101508,,0.006328196,,,,0.029723,,0.000352579,,0.0278576,,0.109524,,,,,,,,
,,,,,,0.0235807,,0.002331974,,0.0189897,,0.0106613,,,,0.0310895,,0.000363125,,0.0298489,,0.118741,,,,,,,,
,,,,,,0.01296252,,0.001425691,,0.0111386,,0.005820953,,,,0.0272827,,0.000315424,,0.0269552,,0.09368,,,,,,,,
,,,,,,0.0209456,,0.001878168,,0.0139993,,0.008477023,,,,0.02824433,,0.000301162,,0.0277375,,0.107446,,,,,,,,
,,,,,,0.0166749,,0.001624601,,0.0111133,,0.006801556,,,,0.0286843,,0.000290411,,0.0281321,,0.120649,,,,,,,,
,,,,,,0.0222815,,0.002375818,,0.0178044,,0.007400816,,,,0.0305828,,0.000289341,,0.0297744,,0.138935,,,,,,,,