File: Data Files/Full/p csv/Processed_XRD_Data_safe.csv
omega,Position,Intensity,amorphous_range,crystalline_range,amorphous_fit,crystalline_fit,amorphous_area,crystalline_area,amorphous_percentage,crystalline_percentage,effective_depth
15.0,"No.
1        11.04
2        11.12
3        11.20
4        11.28
5        11.36
         ...
1471    128.64
1472    128.72
1473    128.80
1474    128.88
1475    128.96
Name: Pos. [°2θ], Length: 1475, dtype: float64","No.
1       2992.0
2       2856.0
3       2908.0
4       2997.0
5       2946.0
         ...
1471    2680.0
1472    2781.0
1473    2722.0
1474    2708.0
1475    2764.0
Name: Intensity [Counts], Length: 1475, dtype: float64","[20.0, 30.0]","[28.5, 30.5]","{'amplitude': -5162.5, 'mean': 27.5949, 'std_dev': 1.85056, 'background': 5246.07, 'uncertainty': array([344.289, 0.107843, 0.107173, 18.7058]), 'amorphous_x_range_used': [20.0, 20.08, 20.16, 20.24, 20.32, 20.4, 20.48, 20.56, 20.64, 20.72, 20.8, 20.88, 20.96, 21.04, 21.12, 21.2, 21.28, 21.36, 21.44, 21.52, 21.6, 21.68, 21.76, 21.84, 21.92, 22, 22.08, 22.16, 22.24, 22.32, 22.4, 22.48, 22.56, 22.64, 22.72, 22.8, 22.88, 22.96, 23.04, 23.12, 23.2, 23.28, 23.36, 23.44, 23.52, 23.6, 23.68, 23.76, 23.84, 23.92, 24, 24.08, 24.16, 24.24, 24.32, 24.4, 24.48, 24.56, 24.64, 24.72, 24.8, 24.88, 24.96, 25.04, 25.12, 25.2, 25.28, 25.36, 25.44, 25.52, 25.6, 25.68, 25.76, 25.84, 25.92, 26, 26.08, 26.16, 26.24, 26.32, 26.4, 26.48, 26.56, 26.64, 26.72, 26.8, 26.88, 26.96, 27.04, 27.12, 27.2, 27.28, 27.36, 27.44, 27.52, 27.6, 27.68, 27.76, 27.84, 27.92, 28, 28.08, 28.16, 28.24, 28.32, 28.4, 28.48], 'amorphous_y_range_used': No.
113    4978.0
114    4975.0
115    4977.0
116    4985.0
117    5102.0
        ...
215    4116.0
216    4210.0
217    4195.0
218    4247.0
219    4198.0
Name: Intensity [Counts], Length: 107, dtype: float64}","{'amplitude': 45897.4, 'mean': 29.4477, 'std_dev': 0.342079, 'background': 398.319, 'uncertainty': array([3820.18, 0.0115673, 0.0203403, 2037.73]), 'crystalline_x_range_used': [28.64, 28.72, 28.8, 28.88, 28.96, 29.04, 29.12, 29.2, 29.28, 29.36, 29.44, 29.52, 29.6, 29.68, 29.76, 29.84, 29.92, 30, 30.08, 30.16, 30.24, 30.32, 30.4, 30.48], 'crystalline_y_range_used': No.
220     4557.0
221     4595.0
222     5290.0
223     8681.0
224    15436.0
225    26700.0
226    39847.0
227    48102.0
228    51105.0
229    50832.0
230    49789.0
231    48030.0
232    46372.0
233    43969.0
234    38999.0
235    31080.0
236    22767.0
237    13976.0
238     7836.0
239     4851.0
240     4210.0
241     4117.0
242     4036.0
243     3888.0
Name: Intensity [Counts], dtype: float64}",40957,46138.9,0.887689,0.112311,81.082
14.0,"No.
1        10.04
2        10.12
3        10.20
4        10.28
5        10.36
         ...
1483    128.60
1484    128.68
1485    128.76
1486    128.84
1487    128.92
Name: Pos. [°2θ], Length: 1487, dtype: float64","No.
1       3243.0
2       3291.0
3       3348.0
4       3458.0
5       3171.0
         ...
1483    2701.0
1484    2819.0
1485    2715.0
1486    2682.0
1487    2647.0
Name: Intensity [Counts], Length: 1487, dtype: float64","[13.0, 38.0]","[26.5, 28.5]","{'amplitude': 33551.3, 'mean': 22.5653, 'std_dev': 4.9001, 'background': 2942.01, 'uncertainty': array([541.963, 0.0327856, 0.0543262, 20.1149]), 'amorphous_x_range_used': [13.0, 13.08, 13.16, 13.24, 13.32, 13.4, 13.48, 13.56, 13.64, 13.72, 13.8, 13.88, 13.96, 14.04, 14.12, 14.2, 14.28, 14.36, 14.44, 14.52, 14.6, 14.68, 14.76, 14.84, 14.92, 15, 15.08, 15.16, 15.24, 15.32, 15.4, 15.48, 15.56, 15.64, 15.72, 15.8, 15.88, 15.96, 16.04, 16.12, 16.2, 16.28, 16.36, 16.44, 16.52, 16.6, 16.68, 16.76, 16.84, 16.92, 17, 17.08, 17.16, 17.24, 17.32, 17.4, 17.48, 17.56, 17.64, 17.72, 17.8, 17.88, 17.96, 18.04, 18.12, 18.2, 18.28, 18.36, 18.44, 18.52, 18.6, 18.68, 18.76, 18.84, 18.92, 19, 19.08, 19.16, 19.24, 19.32, 19.4, 19.48, 19.56, 19.64, 19.72, 19.8, 19.88, 19.96, 20.04, 20.12, 20.2, 20.28, 20.36, 20.44, 20.52, 20.6, 20.68, 20.76, 20.84, 20.92, 21, 21.08, 21.16, 21.24, 21.32, 21.4, 21.48, 21.56, 21.64, 21.72, 21.8, 21.88, 21.96, 22.04, 22.12, 22.2, 22.28, 22.36, 22.44, 22.52, 22.6, 22.68, 22.76, 22.84, 22.92, 23, 23.08, 23.16, 23.24, 23.32, 23.4, 23.48, 23.56, 23.64, 23.72, 23.8, 23.88, 23.96, 24.04, 24.12, 24.2, 24.28, 24.36, 24.44, 24.52, 24.6, 24.68, 24.76, 24.84, 24.92, 25, 25.08, 25.16, 25.24, 25.32, 25.4, 25.48, 25.56, 25.64, 25.72, 25.8, 25.88, 25.96, 26.04, 26.12, 26.2, 26.28, 26.36, 26.44, 28.44, 28.52, 28.6, 28.68, 28.76, 28.84, 28.92, 29, 29.08, 29.16, 29.24, 29.32, 29.4, 29.48, 29.56, 29.64, 29.72, 29.8, 29.88, 29.96, 30.04, 30.12, 30.2, 30.28, 30.36, 30.44, 30.52, 30.6, 30.68, 30.76, 30.84, 30.92, 31, 31.08, 31.16, 31.24, 31.32, 31.4, 31.48, 31.56, 31.64, 31.72, 31.8, 31.88, 31.96, 32.04, 32.12, 32.2, 32.28, 32.36, 32.44, 32.52, 32.6, 32.68, 32.76, 32.84, 32.92, 33, 33.08, 33.16, 33.24, 33.32, 33.4, 33.48, 33.56, 33.64, 33.72, 33.8, 33.88, 33.96, 34.04, 34.12, 34.2, 34.28, 34.36, 34.44, 34.52, 34.6, 34.68, 34.76, 34.84, 34.92, 35, 35.08, 35.16, 35.24, 35.32, 35.4, 35.48, 35.56, 35.64, 35.72, 35.8, 35.88, 35.96, 36.04, 36.12, 36.2, 36.28, 36.36, 36.44, 36.52, 36.6, 36.68, 36.76, 36.84, 36.92, 37, 37.08, 37.16, 37.24, 37.32, 37.4, 37.48, 37.56, 37.64, 37.72, 37.8, 37.88], 'amorphous_y_range_used': No.
38     3226.0
39     3153.0
40     3210.0
41     3157.0
42     3295.0
        ...
346    2819.0
347    2911.0
348    2855.0
349    2837.0
350    2818.0
Name: Intensity [Counts], Length: 288, dtype: float64}","{'amplitude': 51651, 'mean': 27.3569, 'std_dev': 0.336298, 'background': 769.503, 'uncertainty': array([4056.08, 0.0108443, 0.019023, 2184.89]), 'crystalline_x_range_used': [26.52, 26.6, 26.68, 26.76, 26.84, 26.92, 27, 27.08, 27.16, 27.24, 27.32, 27.4, 27.48, 27.56, 27.64, 27.72, 27.8, 27.88, 27.96, 28.04, 28.12, 28.2, 28.28, 28.36], 'crystalline_y_range_used': No.
207     5331.0
208     5502.0
209     5601.0
210     7760.0
211    14147.0
212    24170.0
213    39524.0
214    51594.0
215    57244.0
216    60029.0
217    58493.0
218    55838.0
219    53783.0
220    51768.0
221    46457.0
222    38549.0
223    28973.0
224    19330.0
225    11056.0
226     6398.0
227     5080.0
228     4755.0
229     4625.0
230     4600.0
Name: Intensity [Counts], dtype: float64}",105863,52647.5,0.502684,0.497316,79.8427
13.0,"No.
1         9.04
2         9.12
3         9.20
4         9.28
5         9.36
         ...
1496    128.64
1497    128.72
1498    128.80
1499    128.88
1500    128.96
Name: Pos. [°2θ], Length: 1500, dtype: float64","No.
1       3627.0
2       3647.0
3       3682.0
4       3680.0
5       3786.0
         ...
1496    2814.0
1497    2742.0
1498    2673.0
1499    2677.0
1500    2740.0
Name: Intensity [Counts], Length: 1500, dtype: float64","[13.0, 36.0]","[24.5, 26.5]","{'amplitude': 33003.7, 'mean': 22.2482, 'std_dev': 4.44185, 'background': 3238.34, 'uncertainty': array([713.942, 0.0394025, 0.0649273, 29.5993]), 'amorphous_x_range_used': [13.04, 13.12, 13.2, 13.28, 13.36, 13.44, 13.52, 13.6, 13.68, 13.76, 13.84, 13.92, 14.0, 14.08, 14.16, 14.24, 14.32, 14.4, 14.48, 14.56, 14.64, 14.72, 14.8, 14.88, 14.96, 15.04, 15.12, 15.2, 15.28, 15.36, 15.44, 15.52, 15.6, 15.68, 15.76, 15.84, 15.92, 16.0, 16.08, 16.16, 16.24, 16.32, 16.4, 16.48, 16.56, 16.64, 16.72, 16.8, 16.88, 16.96, 17.04, 17.12, 17.2, 17.28, 17.36, 17.44, 17.52, 17.6, 17.68, 17.76, 17.84, 17.92, 18, 18.08, 18.16, 18.24, 18.32, 18.4, 18.48, 18.56, 18.64, 18.72, 18.8, 18.88, 18.96, 19.04, 19.12, 19.2, 19.28, 19.36, 19.44, 19.52, 19.6, 19.68, 19.76, 19.84, 19.92, 20, 20.08, 20.16, 20.24, 20.32, 20.4, 20.48, 20.56, 20.64, 20.72, 20.8, 20.88, 20.96, 21.04, 21.12, 21.2, 21.28, 21.36, 21.44, 21.52, 21.6, 21.68, 21.76, 21.84, 21.92, 22, 22.08, 22.16, 22.24, 22.32, 22.4, 22.48, 22.56, 22.64, 22.72, 22.8, 22.88, 22.96, 23.04, 23.12, 23.2, 23.28, 23.36, 23.44, 23.52, 23.6, 23.68, 23.76, 23.84, 23.92, 24, 24.08, 24.16, 24.24, 24.32, 24.4, 24.48, 26.48, 26.56, 26.64, 26.72, 26.8, 26.88, 26.96, 27.04, 27.12, 27.2, 27.28, 27.36, 27.44, 27.52, 27.6, 27.68, 27.76, 27.84, 27.92, 28, 28.08, 28.16, 28.24, 28.32, 28.4, 28.48, 28.56, 28.64, 28.72, 28.8, 28.88, 28.96, 29.04, 29.12, 29.2, 29.28, 29.36, 29.44, 29.52, 29.6, 29.68, 29.76, 29.84, 29.92, 30, 30.08, 30.16, 30.24, 30.32, 30.4, 30.48, 30.56, 30.64, 30.72, 30.8, 30.88, 30.96, 31.04, 31.12, 31.2, 31.28, 31.36, 31.44, 31.52, 31.6, 31.68, 31.76, 31.84, 31.92, 32, 32.08, 32.16, 32.24, 32.32, 32.4, 32.48, 32.56, 32.64, 32.72, 32.8, 32.88, 32.96, 33.04, 33.12, 33.2, 33.28, 33.36, 33.44, 33.52, 33.6, 33.68, 33.76, 33.84, 33.92, 34, 34.08, 34.16, 34.24, 34.32, 34.4, 34.48, 34.56, 34.64, 34.72, 34.8, 34.88, 34.96, 35.04, 35.12, 35.2, 35.28, 35.36, 35.44, 35.52, 35.6, 35.68, 35.76, 35.84, 35.92], 'amorphous_y_range_used': No.
51     3951.0
52     4005.0
53     4189.0
54     4060.0
55     4054.0
        ...
334    3156.0
335    2987.0
336    3126.0
337    3216.0
338    3063.0
Name: Intensity [Counts], Length: 263, dtype: float64}","{'amplitude': 55249.6, 'mean': 25.3432, 'std_dev': 0.323515, 'background': 2034.45, 'uncertainty': array([3871.71, 0.0104195, 0.0168337, 2125.16]), 'crystalline_x_range_used': [24.56, 24.64, 24.72, 24.8, 24.88, 24.96, 25.04, 25.12, 25.2, 25.28, 25.36, 25.44, 25.52, 25.6, 25.68, 25.76, 25.84, 25.92, 26, 26.08, 26.16, 26.24, 26.32, 26.4], 'crystalline_y_range_used': No.
195     6577.0
196     6683.0
197     7424.0
198    12061.0
199    21531.0
200    36089.0
201    52212.0
202    63496.0
203    67153.0
204    68170.0
205    64079.0
206    61208.0
207    58740.0
208    53769.0
209    45245.0
210    35294.0
211    24280.0
212    15196.0
213     8521.0
214     6137.0
215     5503.0
216     5420.0
217     5437.0
218     5280.0
Name: Intensity [Counts], dtype: float64}",106397,58519.1,0.449991,0.550009,74.7892
12.0,"No.
1         8.04
2         8.12
3         8.20
4         8.28
5         8.36
         ...
1508    128.60
1509    128.68
1510    128.76
1511    128.84
1512    128.92
Name: Pos. [°2θ], Length: 1512, dtype: float64","No.
1       4210.0
2       4212.0
3       4042.0
4       4206.0
5       4157.0
         ...
1508    2742.0
1509    2703.0
1510    2794.0
1511    2765.0
1512    2766.0
Name: Intensity [Counts], Length: 1512, dtype: float64","[12.0, 32.0]","[22.5, 24.5]","{'amplitude': 22079.3, 'mean': 22.0057, 'std_dev': 3.14691, 'background': 4093.27, 'uncertainty': array([579.749, 0.0438578, 0.0651992, 31.641]), 'amorphous_x_range_used': [12.04, 12.12, 12.2, 12.28, 12.36, 12.44, 12.52, 12.6, 12.68, 12.76, 12.84, 12.92, 13.0, 13.08, 13.16, 13.24, 13.32, 13.4, 13.48, 13.56, 13.64, 13.72, 13.8, 13.88, 13.96, 14.04, 14.12, 14.2, 14.28, 14.36, 14.44, 14.52, 14.6, 14.68, 14.76, 14.84, 14.92, 15, 15.08, 15.16, 15.24, 15.32, 15.4, 15.48, 15.56, 15.64, 15.72, 15.8, 15.88, 15.96, 16.04, 16.12, 16.2, 16.28, 16.36, 16.44, 16.52, 16.6, 16.68, 16.76, 16.84, 16.92, 17, 17.08, 17.16, 17.24, 17.32, 17.4, 17.48, 17.56, 17.64, 17.72, 17.8, 17.88, 17.96, 18.04, 18.12, 18.2, 18.28, 18.36, 18.44, 18.52, 18.6, 18.68, 18.76, 18.84, 18.92, 19, 19.08, 19.16, 19.24, 19.32, 19.4, 19.48, 19.56, 19.64, 19.72, 19.8, 19.88, 19.96, 20.04, 20.12, 20.2, 20.28, 20.36, 20.44, 20.52, 20.6, 20.68, 20.76, 20.84, 20.92, 21, 21.08, 21.16, 21.24, 21.32, 21.4, 21.48, 21.56, 21.64, 21.72, 21.8, 21.88, 21.96, 22.04, 22.12, 22.2, 22.28, 22.36, 22.44, 24.44, 24.52, 24.6, 24.68, 24.76, 24.84, 24.92, 25, 25.08, 25.16, 25.24, 25.32, 25.4, 25.48, 25.56, 25.64, 25.72, 25.8, 25.88, 25.96, 26.04, 26.12, 26.2, 26.28, 26.36, 26.44, 26.52, 26.6, 26.68, 26.76, 26.84, 26.92, 27, 27.08, 27.16, 27.24, 27.32, 27.4, 27.48, 27.56, 27.64, 27.72, 27.8, 27.88, 27.96, 28.04, 28.12, 28.2, 28.28, 28.36, 28.44, 28.52, 28.6, 28.68, 28.76, 28.84, 28.92, 29, 29.08, 29.16, 29.24, 29.32, 29.4, 29.48, 29.56, 29.64, 29.72, 29.8, 29.88, 29.96, 30.04, 30.12, 30.2, 30.28, 30.36, 30.44, 30.52, 30.6, 30.68, 30.76, 30.84, 30.92, 31, 31.08, 31.16, 31.24, 31.32, 31.4, 31.48, 31.56, 31.64, 31.72, 31.8, 31.88], 'amorphous_y_range_used': No.
51     4505.0
52     4448.0
53     4432.0
54     4391.0
55     4581.0
        ...
296    3717.0
297    3546.0
298    3716.0
299    3735.0
300    3658.0
Name: Intensity [Counts], Length: 225, dtype: float64}","{'amplitude': 58013.2, 'mean': 23.3519, 'std_dev': 0.318553, 'background': 2950.48, 'uncertainty': array([4104.63, 0.0103092, 0.0168248, 2273.62]), 'crystalline_x_range_used': [22.52, 22.6, 22.68, 22.76, 22.84, 22.92, 23, 23.08, 23.16, 23.24, 23.32, 23.4, 23.48, 23.56, 23.64, 23.72, 23.8, 23.88, 23.96, 24.04, 24.12, 24.2, 24.28, 24.36], 'crystalline_y_range_used': No.
182     7601.0
183     7590.0
184     7782.0
185     9361.0
186    16069.0
187    27637.0
188    45615.0
189    61199.0
190    70572.0
191    72981.0
192    71926.0
193    67974.0
194    65213.0
195    61552.0
196    54047.0
197    44919.0
198    32676.0
199    21293.0
200    12464.0
201     8252.0
202     6864.0
203     6696.0
204     6605.0
205     6537.0
Name: Intensity [Counts], dtype: float64}",103123,63122.5,0.387889,0.612111,69.7303
11.0,"No.
1         7.04
2         7.12
3         7.20
4         7.28
5         7.36
         ...
1521    128.64
1522    128.72
1523    128.80
1524    128.88
1525    128.96
Name: Pos. [°2θ], Length: 1525, dtype: float64","No.
1       4824.0
2       4716.0
3       4652.0
4       4654.0
5       4632.0
         ...
1521    2800.0
1522    2742.0
1523    2725.0
1524    2902.0
1525    2780.0
Name: Intensity [Counts], Length: 1525, dtype: float64","[11.0, 37.0]","[20.0, 23.0]","{'amplitude': 41032.8, 'mean': 21.2973, 'std_dev': 5.12405, 'background': 3511.37, 'uncertainty': array([1292.42, 0.0604967, 0.123198, 48.8665]), 'amorphous_x_range_used': [11.04, 11.12, 11.2, 11.28, 11.36, 11.44, 11.52, 11.6, 11.68, 11.76, 11.84, 11.92, 12.0, 12.08, 12.16, 12.24, 12.32, 12.4, 12.48, 12.56, 12.64, 12.72, 12.8, 12.88, 12.96, 13.04, 13.12, 13.2, 13.28, 13.36, 13.44, 13.52, 13.6, 13.68, 13.76, 13.84, 13.92, 14, 14.08, 14.16, 14.24, 14.32, 14.4, 14.48, 14.56, 14.64, 14.72, 14.8, 14.88, 14.96, 15.04, 15.12, 15.2, 15.28, 15.36, 15.44, 15.52, 15.6, 15.68, 15.76, 15.84, 15.92, 16, 16.08, 16.16, 16.24, 16.32, 16.4, 16.48, 16.56, 16.64, 16.72, 16.8, 16.88, 16.96, 17.04, 17.12, 17.2, 17.28, 17.36, 17.44, 17.52, 17.6, 17.68, 17.76, 17.84, 17.92, 18, 18.08, 18.16, 18.24, 18.32, 18.4, 18.48, 18.56, 18.64, 18.72, 18.8, 18.88, 18.96, 19.04, 19.12, 19.2, 19.28, 19.36, 19.44, 19.52, 19.6, 19.68, 19.76, 19.84, 19.92, 22.96, 23.04, 23.12, 23.2, 23.28, 23.36, 23.44, 23.52, 23.6, 23.68, 23.76, 23.84, 23.92, 24, 24.08, 24.16, 24.24, 24.32, 24.4, 24.48, 24.56, 24.64, 24.72, 24.8, 24.88, 24.96, 25.04, 25.12, 25.2, 25.28, 25.36, 25.44, 25.52, 25.6, 25.68, 25.76, 25.84, 25.92, 26, 26.08, 26.16, 26.24, 26.32, 26.4, 26.48, 26.56, 26.64, 26.72, 26.8, 26.88, 26.96, 27.04, 27.12, 27.2, 27.28, 27.36, 27.44, 27.52, 27.6, 27.68, 27.76, 27.84, 27.92, 28, 28.08, 28.16, 28.24, 28.32, 28.4, 28.48, 28.56, 28.64, 28.72, 28.8, 28.88, 28.96, 29.04, 29.12, 29.2, 29.28, 29.36, 29.44, 29.52, 29.6, 29.68, 29.76, 29.84, 29.92, 30, 30.08, 30.16, 30.24, 30.32, 30.4, 30.48, 30.56, 30.64, 30.72, 30.8, 30.88, 30.96, 31.04, 31.12, 31.2, 31.28, 31.36, 31.44, 31.52, 31.6, 31.68, 31.76, 31.84, 31.92, 32, 32.08, 32.16, 32.24, 32.32, 32.4, 32.48, 32.56, 32.64, 32.72, 32.8, 32.88, 32.96, 33.04, 33.12, 33.2, 33.28, 33.36, 33.44, 33.52, 33.6, 33.68, 33.76, 33.84, 33.92, 34, 34.08, 34.16, 34.24, 34.32, 34.4, 34.48, 34.56, 34.64, 34.72, 34.8, 34.88, 34.96, 35.04, 35.12, 35.2, 35.28, 35.36, 35.44, 35.52, 35.6, 35.68, 35.76, 35.84, 35.92, 36, 36.08, 36.16, 36.24, 36.32, 36.4, 36.48, 36.56, 36.64, 36.72, 36.8, 36.88], 'amorphous_y_range_used': No.
51     4770.0
52     4866.0
53     4964.0
54     4844.0
55     4867.0
        ...
371    3412.0
372    3434.0
373    3308.0
374    3425.0
375    3324.0
Name: Intensity [Counts], Length: 287, dtype: float64}","{'amplitude': 53382, 'mean': 21.3524, 'std_dev': 0.295446, 'background': 6485.28, 'uncertainty': array([1777.58, 0.00778214, 0.00913181, 824.325]), 'crystalline_x_range_used': [20, 20.08, 20.16, 20.24, 20.32, 20.4, 20.48, 20.56, 20.64, 20.72, 20.8, 20.88, 20.96, 21.04, 21.12, 21.2, 21.28, 21.36, 21.44, 21.52, 21.6, 21.68, 21.76, 21.84, 21.92, 22, 22.08, 22.16, 22.24, 22.32, 22.4, 22.48, 22.56, 22.64, 22.72, 22.8, 22.88], 'crystalline_y_range_used': No.
163     7245.0
164     7377.0
165     7604.0
166     7646.0
167     7771.0
168     7995.0
169     8083.0
170     8208.0
171     8076.0
172     8483.0
173    11779.0
174    20519.0
175    34744.0
176    53687.0
177    67091.0
178    74174.0
179    75880.0
180    72552.0
181    69538.0
182    65397.0
183    59354.0
184    50081.0
185    38613.0
186    26332.0
187    16419.0
188    10401.0
189     8201.0
190     7664.0
191     7542.0
192     7518.0
193     7359.0
194     7342.0
195     7425.0
196     7141.0
197     7325.0
198     7367.0
199     7297.0
Name: Intensity [Counts], dtype: float64}",130512,72059.5,0.44787,0.55213,63.4569
10.0,"No.
1         6.04
2         6.12
3         6.20
4         6.28
5         6.36
         ...
1533    128.60
1534    128.68
1535    128.76
1536    128.84
1537    128.92
Name: Pos. [°2θ], Length: 1537, dtype: float64","No.
1       5588.0
2       5439.0
3       5538.0
4       5532.0
5       5483.0
         ...
1533    7756.0
1534    8529.0
1535    8633.0
1536    8555.0
1537    8280.0
[...]
388     463.0
389     477.0
390     465.0
391     466.0
392     457.0
393     426.0
394     470.0
395     444.0
396     430.0
397     683.0
398    1663.0
399    2808.0
400    3825.0
401    4106.0
402    3277.0
403    2124.0
404     878.0
405     550.0
406     474.0
407     423.0
408     438.0
409     458.0
410     387.0
411     403.0
412     438.0
Name: Intensity [Counts], dtype: float64}",16564.7,2128.57,0.8715,0.1285,2.73967
0.05,"No.
1         0.04
2         0.12
3         0.20
4         0.28
5         0.36
         ...
1608    128.60
1609    128.68
1610    128.76
1611    128.84
1612    128.92
Name: Pos. [°2θ], Length: 1612, dtype: float64","No.
1       2543620.0
2       1481101.0
3        660704.0
4        284327.0
5        169447.0
          ...
1608        203.0
1609        225.0
1610        213.0
1611        234.0
1612        208.0
Name: Intensity [Counts], Length: 1612, dtype: float64","[14.0, 28.0]","[30.5, 32.5]","{'amplitude': 6734.11, 'mean': 19.5931, 'std_dev': 4.07079, 'background': 223.981, 'uncertainty': array([507.91, 0.045187, 0.161154, 27.1076]), 'amorphous_x_range_used': No.
176    14.04
177    14.12
178    14.20
179    14.28
180    14.36
       ...
346    27.64
347    27.72
348    27.80
349    27.88
350    27.96
Name: Pos. [°2θ], Length: 175, dtype: float64, 'amorphous_y_range_used': No.
176    565.0
177    620.0
178    624.0
179    607.0
180    572.0
       ...
346    316.0
347    333.0
348    296.0
349    281.0
350    286.0
Name: Intensity [Counts], Length: 175, dtype: float64}","{'amplitude': 162.955, 'mean': 31.3307, 'std_dev': 0.150663, 'background': 216.363, 'uncertainty': array([6.00839, 0.00496637, 0.00549171, 4.74667]), 'crystalline_x_range_used': No.
382    30.52
383    30.60
384    30.68
385    30.76
386    30.84
387    30.92
388    31.00
389    31.08
390    31.16
391    31.24
392    31.32
393    31.40
394    31.48
395    31.56
396    31.64
397    31.72
398    31.80
399    31.88
400    31.96
401    32.04
402    32.12
403    32.20
404    32.28
405    32.36
406    32.44
Name: Pos. [°2θ], dtype: float64, 'crystalline_y_range_used': No.
382    268.0
383    228.0
384    215.0
385    215.0
386    218.0
387    233.0
388    269.0
389    327.0
390    421.0
391    590.0
392    654.0
393    589.0
394    493.0
395    341.0
396    272.0
397    241.0
398    241.0
399    225.0
400    186.0
401    203.0
402    190.0
403    206.0
404    208.0
405    206.0
406    207.0
Name: Intensity [Counts], dtype: float64}",9136.8,578.371,0.936699,0.0633013,0.27163
0.1,"No.
1         0.04
2         0.12
3         0.20
4         0.28
5         0.36
         ...
1608    128.60
1609    128.68
1610    128.76
1611    128.84
1612    128.92
Name: Pos. [°2θ], Length: 1612, dtype: float64","No.
1       2244251.0
2       1330112.0
3        595899.0
4        254025.0
5        155149.0
          ...
1608        250.0
1609        227.0
1610        255.0
1611        246.0
1612        250.0
Name: Intensity [Counts], Length: 1612, dtype: float64","[12.0, 30.0]","[30.5, 32.5]","{'amplitude': 6736.88, 'mean': 20.0261, 'std_dev': 3.88737, 'background': 408.238, 'uncertainty': array([387.806, 0.0576856, 0.139001, 19.8342]), 'amorphous_x_range_used': No.
151    12.04
152    12.12
153    12.20
154    12.28
155    12.36
       ...
371    29.64
372    29.72
373    29.80
374    29.88
375    29.96
Name: Pos. [°2θ], Length: 225, dtype: float64, 'amorphous_y_range_used': No.
151    622.0
152    656.0
153    687.0
154    612.0
155    658.0
       ...
371    402.0
372    373.0
373    380.0
374    389.0
375    360.0
Name: Intensity [Counts], Length: 225, dtype: float64}","{'amplitude': 360.489, 'mean': 31.3483, 'std_dev': 0.191883, 'background': 308.276, 'uncertainty': array([15.0603, 0.00647875, 0.00751942, 10.5426]), 'crystalline_x_range_used': No.
382    30.52
383    30.60
384    30.68
385    30.76
386    30.84
387    30.92
388    31.00
389    31.08
390    31.16
391    31.24
392    31.32
393    31.40
394    31.48
395    31.56
396    31.64
397    31.72
398    31.80
399    31.88
400    31.96
401    32.04
402    32.12
403    32.20
404    32.28
405    32.36
406    32.44
Name: Pos. [°2θ], dtype: float64, 'crystalline_y_range_used': No.
382     334.0
383     399.0
384     335.0
385     342.0
386     332.0
387     340.0
388     448.0
389     616.0
390     797.0
391     935.0
392    1013.0
393    1016.0
394     943.0
395     769.0
396     485.0
397     406.0
398     339.0
399     268.0
400     310.0
401     292.0
402     312.0
403     281.0
404     298.0
405     327.0
406     276.0
Name: Intensity [Counts], dtype: float64}",13882.2,952.375,0.931396,0.068604,0.543637
0.01,"No.
1         0.04
2         0.12
3         0.20
4         0.28
5         0.36
         ...
1608    128.60
1609    128.68
1610    128.76
1611    128.84
1612    128.92
Name: Pos. [°2θ], Length: 1612, dtype: float64","No.
1       2281857.0
2       1344978.0
3        602579.0
4        258768.0
5        153569.0
          ...
1608        208.0
1609        208.0
1610        202.0
1611        207.0
1612        167.0
Name: Intensity [Counts], Length: 1612, dtype: float64","[13.0, 26.0]","[30.5, 32.0]","{'amplitude': 7972.04, 'mean': 18.667, 'std_dev': 5.54275, 'background': -4.84245, 'uncertainty': array([2925.73, 0.0686045, 0.836401, 127.323]), 'amorphous_x_range_used': No.
163    13.00
164    13.08
165    13.16
166    13.24
167    13.32
       ...
321    25.64
322    25.72
323    25.80
324    25.88
325    25.96
Name: Pos. [°2θ], Length: 163, dtype: float64, 'amorphous_y_range_used': No.
163    465.0
164    423.0
165    411.0
166    408.0
167    435.0
       ...
321    263.0
322    249.0
323    247.0
324    238.0
325    230.0
Name: Intensity [Counts], Length: 163, dtype: float64}","{'amplitude': 13.0981, 'mean': 31.2805, 'std_dev': 0.139573, 'background': 132.751, 'uncertainty': array([4.35934, 0.03837125, 0.04405242, 4.10441]), 'crystalline_x_range_used': No.
382    30.52
383    30.60
384    30.68
385    30.76
386    30.84
387    30.92
388    31.00
389    31.08
390    31.16
391    31.24
392    31.32
393    31.40
394    31.48
395    31.56
396    31.64
397    31.72
398    31.80
399    31.88
400    31.96
Name: Pos. [°2θ], dtype: float64, 'crystalline_y_range_used': No.
382    141.0
383    144.0
384    133.0
385    151.0
386    141.0
387    154.0
388    137.0
389    146.0
390    163.0
391    159.0
392    166.0
393    178.0
394    137.0
395    127.0
396    125.0
397    117.0
398    114.0
399    128.0
400    125.0
Name: Intensity [Counts], dtype: float64}",5936.8,204.26,0.965594,0.0344057,0.054121
7.0,"No.
1         3.04
2         3.12
3         3.20
4         3.28
5         3.36
         ...
1571    128.64
1572    128.72
1573    128.80
1574    128.88
1575    128.96
Name: Pos. [°2θ], Length: 1575, dtype: float64","No.
1       136331
2       130739
3       127712
4       125865
5       124628
         ...
1571      1678
1572      1541
1573      1513
1574      1401
1575      1503
Name: Intensity [Counts], Length: 1575, dtype: int64","[13.0, 30.0]","[63.0, 65.0]","{'amplitude': 4196.76, 'mean': 21.6381, 'std_dev': 1.60038, 'background': 3867.8, 'uncertainty': array([2144.98, 0.668177, 0.771354, 178.107]), 'amorphous_x_range_used': No.
126    13.04
127    13.12
128    13.20
129    13.28
130    13.36
       ...
334    29.68
335    29.76
336    29.84
337    29.92
338    30.00
Name: Pos. [°2θ], Length: 213, dtype: float64, 'amorphous_y_range_used': No.
126     3672
127     5369
128     8581
129    12581
130    15680
       ...
334     2701
335     2759
336     2616
337     2705
338     2620
Name: Intensity [Counts], Length: 213, dtype: int64}","{'amplitude': 11475.8, 'mean': 63.8764, 'std_dev': 0.175192, 'background': 1515.88, 'uncertainty': array([80.8078, 0.00104115, 0.0011828, 59.2016]), 'crystalline_x_range_used': No.
751    63.04
752    63.12
753    63.20
754    63.28
755    63.36
756    63.44
757    63.52
758    63.60
759    63.68
760    63.76
761    63.84
762    63.92
763    64.00
764    64.08
765    64.16
766    64.24
767    64.32
768    64.40
769    64.48
770    64.56
771    64.64
772    64.72
773    64.80
774    64.88
775    64.96
Name: Pos. [°2θ], dtype: float64, 'crystalline_y_range_used': No.
751     1463
752     1637
753     1767
754     1905
755     2001
756     2423
757     4591
758     8944
759    15557
760    22734
761    27065
762    26413
763    22180
764    14898
765     8559
766     4520
767     2302
768     1955
769     1838
770     1671
771     1497
772     1414
773     1428
774     1263
775     1320
Name: Intensity [Counts], dtype: int64}",69794.7,14386.3,0.793877,0.206123,38.6571