File: Data Files/Full/p01 csv/Corrected_Depth_XRD_Data.csv
,file_name,omega,amorphous_percentage,crystalline_percentage,effective_depth,amorphous_percentage_intensity,crystalline_percentage_intensity,effective_depth_intensity,corrected_amorphous_percentage,corrected_crystalline_percentage,weight,corrected_amorphous_percentage_intensity,corrected_crystalline_percentage_intensity,weight_intensity,index_of_refraction,index_of_refraction_intensity,attenuation_coefficient,attenuation_coefficient_intensity,corrected_depth,corrected_depth_intensity
0,"MSS p (10-35, 0.005w)_01.csv",0.005,1.0869,-0.0868984,2.66387e-08,1.02906,-0.0290603,2.68381e-08,1.0869,-0.0868984,1.0,1.02906,-0.0290603,1.0,(0.999993-2.0080988739629516e-07j),(0.999993-1.9931730014675062e-07j),16379.7,16257.9,0.0122676,0.0123594
1,"MSS p (10-35, 0.05w)_01.csv",0.05,0.994608,0.00539244,2.69584e-07,0.898301,0.101699,2.73003e-07,0.984488,0.015512,0.098814,0.884045,0.115955,0.098307,(0.999993-1.981670553721221e-07j),(0.999993-1.9557500490328524e-07j),16164.1,15952.7,0.123956,0.125446
2,"MSS p (10-35, 0.1w)_01.csv",0.1,0.949502,0.0504977,5.42349e-07,0.516767,0.483233,5.74894e-07,0.904923,0.095077,0.497067,0.171741,0.828259,0.474876,(0.999993-1.961137789876071e-07j),(0.999993-1.771930645814489e-07j),15996.6,14453.3,0.248268,0.251405
3,"MSS p (6-129, 0.25w)_01.csv",0.25,0.907033,0.0929671,1.36344e-06,0.317374,0.682626,1.4781e-06,0.878981,0.121019,0.397779,0.19046,0.80954,0.388941,(0.999993-1.9544431511903665e-07j),(0.999993-1.7767615149255487e-07j),15942,14492.7,0.625165,0.665992
4,"MSS p (10-35, 0.5w)_01.csv",0.5,0.893605,0.106395,2.73169e-06,0.25931,0.74069,2.98086e-06,0.880224,0.119776,0.499122,0.202198,0.797802,0.495864,(0.999993-1.9547640193908155e-07j),(0.999993-1.779790654054093e-07j),15944.6,14517.4,1.25537,1.35922
5,"MSS p (10-35, 1w)_01.csv",1.0,0.78772,0.21228,5.54048e-06,0.134382,0.865618,6.07055e-06,0.684742,0.315258,0.493042,0.013854,0.986146,0.491036,(0.999993-1.9043171585482615e-07j),(0.999992-1.731185971435248e-07j),15533.1,14120.9,2.5155,2.74342
6,"MSS p (6-129, 2w)_01.csv",2.0,0.855215,0.144785,1.09802e-05,0.217244,0.782756,1.19937e-05,0.923959,0.0760408,0.504587,0.302168,0.697832,0.506144,(0.999993-1.9660503322522277e-07j),(0.999993-1.805589183990887e-07j),16036.7,14727.8,5.09608,5.58171
7,"MSS p (10-60, 3w)_01.csv",3.0,0.846704,0.153296,1.64847e-05,0.238732,0.761268,1.79303e-05,0.829726,0.170274,0.666084,0.282145,0.717855,0.668909,(0.999993-1.9417321700006855e-07j),(0.999993-1.8004218745210787e-07j),15838.3,14685.7,7.6136,8.32791
8,"MSS p (6-129, 4w)_01.csv",4.0,0.875151,0.124849,2.18893e-05,0.273744,0.726256,2.37784e-05,0.961919,0.0380806,0.753097,0.38109,0.61891,0.754055,(0.999993-1.9758464481069704e-07j),(0.999993-1.8259558437423957e-07j),16116.6,14894,10.1149,11.0515
9,"MSS p (6-129, 5w)_01.csv",5.0,0.500443,0.499557,2.87734e-05,0.0689877,0.931012,3.06089e-05,-0.691006,1.69101,0.760747,-0.64382,1.64382,0.776848,(0.999992-1.5492877580027744e-07j),(0.999992-1.5614647566364441e-07j),12637.2,12736.6,12.6336,13.7768
10,"MSS p (6-129, 6w)_01.csv",6.0,0.642594,0.357406,3.38402e-05,0.0958458,0.904154,3.65649e-05,1.44984,-0.449844,0.850273,0.233873,0.766127,0.83711,(0.999993-2.101761692191927e-07j),(0.999993-1.7879646521494406e-07j),17143.7,14584.1,15.1592,16.5007
11,"MSS p (6-129, 7w)_01.csv",7.0,0.66394,0.33606,3.93397e-05,0.109755,0.890245,4.25438e-05,0.795287,0.204713,0.860205,0.194818,0.805182,0.859466,(0.999993-1.932844759463488e-07j),(0.999993-1.7778859715768183e-07j),15765.8,14501.9,17.6596,19.2016
12,"MSS p (6-129, 8w)_01.csv",8.0,0.708202,0.291798,4.46568e-05,0.145943,0.854057,4.83274e-05,1.03569,-0.0356864,0.880935,0.412144,0.587856,0.880325,(0.999993-1.9948829713708771e-07j),(0.999993-1.8339697170494443e-07j),16271.9,14959.3,20.1318,21.8767
13,"MSS p (6-129, 9w)_01.csv",9.0,0.641747,0.358253,5.06502e-05,0.147827,0.852173,5.43064e-05,0.146592,0.853408,0.881671,0.163055,0.836945,0.889903,(0.999993-1.7654407634446742e-07j),(0.999993-1.7696891736943328e-07j),14400.4,14435,22.7931,24.6752
14,"MSS p (6-129, 10w)_01.csv",10.0,0.581968,0.418032,5.66855e-05,0.135105,0.864895,6.03944e-05,0.0802884,0.919712,0.89353,0.0216165,0.978384,0.899195,(0.999992-1.7483302247788174e-07j),(0.999992-1.7331891743197207e-07j),14260.8,14137.3,25.9295,27.7872
15,"MSS p (10-35, 11w)_01.csv",11.0,-0.432819,1.43282,7.23819e-05,1.3193,-0.319303,5.65565e-05,-4.09759,5.09759,0.783145,-17.3156,18.3156,1.06786,(0.99999-6.701743153682235e-08j),(0.999982+2.7409018071310603e-07j),5466.48,-22357,28.982,30.8541
16,"MSS p (10-35, 12w)_01.csv",12.0,0.493766,0.506234,6.87032e-05,0.107101,0.892899,7.26089e-05,-17.7378,18.7378,1.05354,-4.16378,5.16378,0.77892,(0.999982+2.8498590543518883e-07j),(0.99999-6.530925702020814e-08j),-23245.7,5327.15,31.279,33.5543
17,"MSS p (10-35, 13w)_01.csv",13.0,0.509886,0.490114,7.41675e-05,0.105613,0.894387,7.85768e-05,0.712572,0.287428,0.926326,0.0874995,0.9125,0.924051,(0.999993-1.91149914559158e-07j),(0.999992-1.7501911434658164e-07j),15591.7,14276,33.5676,36.2445
18,"MSS p (12-37, 14w)_01.csv",14.0,0.581187,0.418813,7.89812e-05,0.111335,0.888665,8.44338e-05,1.67976,-0.679759,0.939052,0.188106,0.811894,0.930632,(0.999993-2.1610942781603253e-07j),(0.999993-1.7761540374878986e-07j),17627.6,14487.7,36.0224,38.9373
19,"MSS p (15-40, 15w)_01.csv",15.0,0.579434,0.420566,8.4518e-05,0.109143,0.890857,9.03602e-05,0.55442,0.44558,0.934489,0.0779145,0.922086,0.934413,(0.999993-1.8706861029216062e-07j),(0.999992-1.7477175958735525e-07j),15258.8,14255.8,38.4902,41.6203
20,"MSS p (15-40, 16w)_01.csv",16.0,0.842193,0.157807,8.6872e-05,0.274862,0.725138,9.39437e-05,10.2765,-9.27648,0.972903,4.45358,-3.45358,0.961855,(0.999999-4.3795887829385393e-07j),(0.999995-2.876915138991041e-07j),35723.4,23466.4,40.8965,44.2372
21,"MSS p (15-40, 17w)_01.csv",17.0,0.776485,0.223515,9.29566e-05,0.210613,0.789387,0.000100574,-0.161666,1.16167,0.934544,-0.699671,1.69967,0.934072,(0.999992-1.685890695294299e-07j),(0.999992-1.547051599387693e-07j),13751.5,12619,43.2646,46.813
22,"MSS p (15-40, 18w)_01.csv",18.0,0.727584,0.272416,9.88961e-05,0.218842,0.781158,0.000106174,-0.0377378,1.03774,0.939942,0.366639,0.633361,0.947262,(0.999992-1.7178720491991976e-07j),(0.999993-1.8222266441611013e-07j),14012.3,14863.5,45.7452,49.4132
23,"MSS p (17-41, 19w)_01.csv",19.0,0.4827,0.5173,0.000107748,0.112273,0.887727,0.000113612,-2.2532,3.2532,0.917846,-1.40893,2.40893,0.934531,(0.999991-1.1461434739707839e-07j),(0.999992-1.3640187704294024e-07j),9348.87,11126,48.3917,52.0533
24,"MSS p (18-42, 20w)_01.csv",20.0,0.437741,0.562259,0.000113906,0.109329,0.890671,0.000119404,-0.348873,1.34887,0.945935,0.0515848,0.948415,0.951486,(0.999992-1.63757967817638e-07j),(0.999992-1.7409228884894751e-07j),13357.4,14200.4,51.026,54.6855
25,"MSS p (19-44, 21w)_01.csv",21.0,0.331969,0.668031,0.000121147,0.109341,0.890659,0.000125112,-1.33188,2.33188,0.940229,0.109588,0.890412,0.954384,(0.999992-1.3839026986782436e-07j),(0.999992-1.7558913785851214e-07j),11288.2,14322.5,53.6655,57.3481
26,"MSS p (20-48, 22w)_01.csv",22.0,0.219117,0.780883,0.000128704,0.0941643,0.905836,0.000131073,-1.59012,2.59012,0.941287,-0.224338,1.22434,0.954518,(0.999991-1.3172596684635517e-07j),(0.999992-1.6697174615633094e-07j),10744.6,13619.6,56.2875,59.9929
27,"MSS p (21-48, 23w)_01.csv",23.0,0.189971,0.810029,0.000134812,0.0894109,0.910589,0.000136811,-0.424147,1.42415,0.954691,-0.0191771,1.01918,0.958061,(0.999992-1.6181541948659976e-07j),(0.999992-1.7226618709548394e-07j),13199,14051.4,62.439,66.2986
28,"MSS p (22-50, 24w)_01.csv",24.0,0.0564067,0.943593,0.000143111,0.0734908,0.926509,0.00014275,-2.11333,3.11333,0.942012,-0.293235,1.29323,0.958395,(0.999991-1.1822395988454255e-07j),(0.999992-1.651937777054263e-07j),9643.3,13474.5,69.1808,72.8358
29,"MSS p (21-129, 25w)_01.csv",25.0,0.210687,0.789313,0.000145377,0.127278,0.872722,0.000147154,9.95591,-8.95591,0.984415,1.87057,-0.870568,0.97007,(0.999999-4.29686189940959e-07j),(0.999994-2.2103350237274096e-07j),35048.7,18029.3,73.6051,75.3973